#------------------------------------------------------------------------------
# cpd-1a.prn â€” powder diffraction data from the IUCr QPA Round Robin
# Source: https://www.iucr.org/__data/iucr/powder/QARR/col/cpd-1a.prn
#------------------------------------------------------------------------------
   5.000       153
   5.020       161
   5.040       141
   5.060       141
   5.080       148
   5.100       163
   5.120       139
   5.140       139
   5.160       129
   5.180       132
   5.200       129
   5.220       129
   5.240       151
   5.260       121
   5.280       129
   5.300       127
   5.320       127
   5.340       151
   5.360       139
   5.380       146
   5.400       129
   5.420       134
   5.440       125
   5.460       114
   5.480       129
   5.500       127
   5.520       125
   5.540       129
   5.560       121
   5.580       121
   5.600       123
   5.620       141
   5.640       136
   5.660       114
   5.680       125
   5.700       136
   5.720       123
   5.740       129
   5.760       129
   5.780       127
   5.800       132
   5.820       112
   5.840       123
   5.860       104
   5.880       141
   5.900       127
   5.920       100
   5.940       108
   5.960       123
   5.980       127
   6.000       116
   6.020       116
   6.040       121
   6.060       139
   6.080       125
   6.100       100
   6.120       116
   6.140       125
   6.160       116
   6.180       116
   6.200       118
   6.220       123
   6.240       141
   6.260       121
   6.280       121
   6.300       106
   6.320       102
   6.340        96
   6.360       112
   6.380       121
   6.400       118
   6.420       112
   6.440       121
   6.460       118
   6.480        90
   6.500       106
   6.520       108
   6.540       121
   6.560       110
   6.580        96
   6.600        98
   6.620       116
   6.640       100
   6.660       121
   6.680       108
   6.700       104
   6.720        92
   6.740        98
   6.760        98
   6.780        98
   6.800       106
   6.820       104
   6.840       104
   6.860        94
   6.880       100
   6.900       102
   6.920        92
   6.940        92
   6.960        96
   6.980        90
   7.000       100
   7.020       106
   7.040       110
   7.060        92
   7.080       106
   7.100        82
   7.120        82
   7.140       108
   7.160        82
   7.180       104
   7.200       110
   7.220        96
   7.240        86
   7.260       108
   7.280       104
   7.300        94
   7.320       100
   7.340        88
   7.360        92
   7.380        88
   7.400       110
   7.420        94
   7.440        92
   7.460        94
   7.480        96
   7.500        98
   7.520        98
   7.540        92
   7.560        79
   7.580        88
   7.600        88
   7.620        72
   7.640        84
   7.660        98
   7.680        96
   7.700        86
   7.720        92
   7.740        94
   7.760        96
   7.780        82
   7.800        81
   7.820        81
   7.840        79
   7.860        88
   7.880        72
   7.900        86
   7.920        92
   7.940        98
   7.960        70
   7.980        92
   8.000        92
   8.020        79
   8.040        70
   8.060        84
   8.080        79
   8.100        86
   8.120        81
   8.140        98
   8.160        72
   8.180        92
   8.200        65
   8.220        79
   8.240        82
   8.260        92
   8.280        82
   8.300        70
   8.320        79
   8.340        96
   8.360        82
   8.380        84
   8.400        75
   8.420        75
   8.440        70
   8.460        68
   8.480        92
   8.500       100
   8.520        57
   8.540        62
   8.560        72
   8.580        81
   8.600        81
   8.620        75
   8.640        73
   8.660        75
   8.680        79
   8.700        79
   8.720        77
   8.740        92
   8.760        67
   8.780        75
   8.800        64
   8.820        75
   8.840        79
   8.860        68
   8.880        75
   8.900        92
   8.920        88
   8.940        79
   8.960        70
   8.980        75
   9.000        75
   9.020        77
   9.040        70
   9.060        75
   9.080        75
   9.100        86
   9.120        65
   9.140        75
   9.160        67
   9.180        72
   9.200        84
   9.220        86
   9.240        77
   9.260        70
   9.280        64
   9.300        77
   9.320        54
   9.340        72
   9.360        72
   9.380        70
   9.400        67
   9.420        53
   9.440        62
   9.460        70
   9.480        64
   9.500        72
   9.520        56
   9.540        64
   9.560        75
   9.580        65
   9.600        65
   9.620        65
   9.640        64
   9.660        77
   9.680        42
   9.700        67
   9.720        62
   9.740        62
   9.760        64
   9.780        65
   9.800        67
   9.820        72
   9.840        59
   9.860        54
   9.880        50
   9.900        65
   9.920        59
   9.940        62
   9.960        67
   9.980        56
  10.000        53
  10.020        65
  10.040        72
  10.060        59
  10.080        50
  10.100        60
  10.120        65
  10.140        59
  10.160        67
  10.180        56
  10.200        50
  10.220        65
  10.240        62
  10.260        70
  10.280        64
  10.300        67
  10.320        70
  10.340        64
  10.360        49
  10.380        64
  10.400        54
  10.420        59
  10.440        53
  10.460        62
  10.480        59
  10.500        56
  10.520        70
  10.540        51
  10.560        72
  10.580        59
  10.600        57
  10.620        50
  10.640        60
  10.660        56
  10.680        62
  10.700        50
  10.720        70
  10.740        50
  10.760        57
  10.780        67
  10.800        75
  10.820        65
  10.840        46
  10.860        60
  10.880        54
  10.900        65
  10.920        59
  10.940        56
  10.960        59
  10.980        64
  11.000        62
  11.020        39
  11.040        56
  11.060        65
  11.080        60
  11.100        56
  11.120        46
  11.140        43
  11.160        68
  11.180        59
  11.200        47
  11.220        54
  11.240        65
  11.260        51
  11.280        49
  11.300        47
  11.320        62
  11.340        50
  11.360        68
  11.380        50
  11.400        64
  11.420        56
  11.440        49
  11.460        47
  11.480        47
  11.500        54
  11.520        60
  11.540        50
  11.560        53
  11.580        47
  11.600        56
  11.620        56
  11.640        65
  11.660        50
  11.680        50
  11.700        49
  11.720        56
  11.740        47
  11.760        50
  11.780        50
  11.800        56
  11.820        43
  11.840        47
  11.860        53
  11.880        56
  11.900        49
  11.920        50
  11.940        57
  11.960        50
  11.980        53
  12.000        47
  12.020        53
  12.040        43
  12.060        46
  12.080        40
  12.100        56
  12.120        54
  12.140        49
  12.160        59
  12.180        44
  12.200        49
  12.220        50
  12.240        51
  12.260        56
  12.280        44
  12.300        46
  12.320        50
  12.340        42
  12.360        50
  12.380        38
  12.400        53
  12.420        50
  12.440        53
  12.460        47
  12.480        50
  12.500        50
  12.520        54
  12.540        38
  12.560        43
  12.580        56
  12.600        43
  12.620        49
  12.640        56
  12.660        59
  12.680        43
  12.700        42
  12.720        43
  12.740        47
  12.760        38
  12.780        44
  12.800        43
  12.820        50
  12.840        37
  12.860        42
  12.880        49
  12.900        50
  12.920        47
  12.940        50
  12.960        51
  12.980        51
  13.000        43
  13.020        62
  13.040        42
  13.060        53
  13.080        40
  13.100        51
  13.120        56
  13.140        26
  13.160        36
  13.180        64
  13.200        51
  13.220        49
  13.240        47
  13.260        44
  13.280        51
  13.300        39
  13.320        54
  13.340        40
  13.360        50
  13.380        47
  13.400        53
  13.420        46
  13.440        34
  13.460        49
  13.480        43
  13.500        43
  13.520        47
  13.540        51
  13.560        60
  13.580        43
  13.600        44
  13.620        44
  13.640        40
  13.660        56
  13.680        42
  13.700        33
  13.720        42
  13.740        46
  13.760        36
  13.780        42
  13.800        49
  13.820        49
  13.840        40
  13.860        46
  13.880        56
  13.900        50
  13.920        32
  13.940        38
  13.960        38
  13.980        42
  14.000        50
  14.020        38
  14.040        43
  14.060        40
  14.080        40
  14.100        47
  14.120        50
  14.140        54
  14.160        42
  14.180        38
  14.200        32
  14.220        42
  14.240        33
  14.260        38
  14.280        34
  14.300        47
  14.320        34
  14.340        46
  14.360        46
  14.380        43
  14.400        49
  14.420        46
  14.440        42
  14.460        38
  14.480        43
  14.500        43
  14.520        26
  14.540        40
  14.560        37
  14.580        30
  14.600        34
  14.620        37
  14.640        36
  14.660        40
  14.680        40
  14.700        38
  14.720        29
  14.740        38
  14.760        38
  14.780        43
  14.800        36
  14.820        24
  14.840        39
  14.860        37
  14.880        34
  14.900        42
  14.920        47
  14.940        40
  14.960        33
  14.980        32
  15.000        36
  15.020        37
  15.040        34
  15.060        37
  15.080        37
  15.100        39
  15.120        25
  15.140        40
  15.160        39
  15.180        37
  15.200        39
  15.220        43
  15.240        36
  15.260        43
  15.280        40
  15.300        32
  15.320        38
  15.340        36
  15.360        30
  15.380        32
  15.400        37
  15.420        31
  15.440        43
  15.460        42
  15.480        38
  15.500        39
  15.520        39
  15.540        32
  15.560        30
  15.580        46
  15.600        31
  15.620        36
  15.640        24
  15.660        34
  15.680        43
  15.700        30
  15.720        43
  15.740        34
  15.760        39
  15.780        40
  15.800        38
  15.820        28
  15.840        33
  15.860        44
  15.880        38
  15.900        38
  15.920        33
  15.940        32
  15.960        40
  15.980        37
  16.000        30
  16.020        36
  16.040        29
  16.060        36
  16.080        32
  16.100        32
  16.120        32
  16.140        42
  16.160        32
  16.180        38
  16.200        36
  16.220        32
  16.240        37
  16.260        32
  16.280        36
  16.300        34
  16.320        36
  16.340        38
  16.360        34
  16.380        31
  16.400        42
  16.420        42
  16.440        39
  16.460        38
  16.480        31
  16.500        36
  16.520        28
  16.540        34
  16.560        36
  16.580        26
  16.600        31
  16.620        38
  16.640        43
  16.660        20
  16.680        38
  16.700        39
  16.720        20
  16.740        39
  16.760        23
  16.780        38
  16.800        32
  16.820        28
  16.840        38
  16.860        17
  16.880        27
  16.900        43
  16.920        29
  16.940        44
  16.960        31
  16.980        27
  17.000        32
  17.020        27
  17.040        26
  17.060        24
  17.080        23
  17.100        34
  17.120        38
  17.140        37
  17.160        30
  17.180        32
  17.200        26
  17.220        26
  17.240        32
  17.260        38
  17.280        29
  17.300        40
  17.320        33
  17.340        34
  17.360        34
  17.380        29
  17.400        27
  17.420        31
  17.440        37
  17.460        31
  17.480        30
  17.500        25
  17.520        22
  17.540        33
  17.560        25
  17.580        23
  17.600        29
  17.620        38
  17.640        32
  17.660        29
  17.680        27
  17.700        29
  17.720        20
  17.740        39
  17.760        33
  17.780        31
  17.800        32
  17.820        29
  17.840        27
  17.860        40
  17.880        36
  17.900        31
  17.920        21
  17.940        25
  17.960        31
  17.980        24
  18.000        28
  18.020        32
  18.040        30
  18.060        28
  18.080        31
  18.100        23
  18.120        34
  18.140        26
  18.160        26
  18.180        29
  18.200        29
  18.220        28
  18.240        38
  18.260        32
  18.280        21
  18.300        33
  18.320        30
  18.340        26
  18.360        31
  18.380        42
  18.400        32
  18.420        32
  18.440        36
  18.460        33
  18.480        21
  18.500        30
  18.520        26
  18.540        40
  18.560        25
  18.580        23
  18.600        16
  18.620        42
  18.640        29
  18.660        25
  18.680        31
  18.700        21
  18.720        31
  18.740        23
  18.760        26
  18.780        27
  18.800        29
  18.820        33
  18.840        29
  18.860        34
  18.880        32
  18.900        34
  18.920        30
  18.940        32
  18.960        23
  18.980        31
  19.000        26
  19.020        26
  19.040        23
  19.060        24
  19.080        25
  19.100        34
  19.120        32
  19.140        38
  19.160        36
  19.180        24
  19.200        32
  19.220        24
  19.240        31
  19.260        22
  19.280        29
  19.300        23
  19.320        32
  19.340        27
  19.360        25
  19.380        26
  19.400        25
  19.420        23
  19.440        33
  19.460        31
  19.480        28
  19.500        28
  19.520        26
  19.540        31
  19.560        21
  19.580        21
  19.600        38
  19.620        30
  19.640        26
  19.660        34
  19.680        25
  19.700        21
  19.720        22
  19.740        28
  19.760        38
  19.780        22
  19.800        28
  19.820        19
  19.840        25
  19.860        29
  19.880        29
  19.900        28
  19.920        24
  19.940        39
  19.960        26
  19.980        24
  20.000        16
  20.020        22
  20.040        29
  20.060        32
  20.080        16
  20.100        26
  20.120        26
  20.140        25
  20.160        22
  20.180        30
  20.200        36
  20.220        25
  20.240        20
  20.260        28
  20.280        27
  20.300        16
  20.320        26
  20.340        21
  20.360        22
  20.380        25
  20.400        20
  20.420        22
  20.440        23
  20.460        20
  20.480        28
  20.500        44
  20.520        26
  20.540        23
  20.560        17
  20.580        28
  20.600        12
  20.620        24
  20.640        25
  20.660        31
  20.680        23
  20.700        28
  20.720        28
  20.740        23
  20.760        19
  20.780        34
  20.800        24
  20.820        26
  20.840        25
  20.860        24
  20.880        23
  20.900        17
  20.920        21
  20.940        29
  20.960        24
  20.980        19
  21.000        19
  21.020        27
  21.040        17
  21.060        32
  21.080        28
  21.100        22
  21.120        17
  21.140        19
  21.160        24
  21.180        30
  21.200        22
  21.220        30
  21.240        23
  21.260        32
  21.280        22
  21.300        21
  21.320        30
  21.340        22
  21.360        20
  21.380        24
  21.400        20
  21.420        23
  21.440        26
  21.460        22
  21.480        25
  21.500        28
  21.520        33
  21.540        24
  21.560        31
  21.580        17
  21.600        26
  21.620        16
  21.640        27
  21.660        26
  21.680        24
  21.700        22
  21.720        20
  21.740        26
  21.760        26
  21.780        25
  21.800        15
  21.820        24
  21.840        25
  21.860        19
  21.880        28
  21.900        13
  21.920        31
  21.940        27
  21.960        20
  21.980        31
  22.000        12
  22.020        26
  22.040        32
  22.060        21
  22.080        24
  22.100        30
  22.120        17
  22.140        29
  22.160        25
  22.180        16
  22.200        17
  22.220        26
  22.240        28
  22.260        17
  22.280        27
  22.300        27
  22.320        17
  22.340        27
  22.360        17
  22.380        22
  22.400        28
  22.420        24
  22.440        19
  22.460        22
  22.480        24
  22.500        21
  22.520        32
  22.540        25
  22.560        28
  22.580        31
  22.600        21
  22.620        25
  22.640        21
  22.660        23
  22.680        19
  22.700        21
  22.720        16
  22.740        25
  22.760        21
  22.780        21
  22.800        29
  22.820        16
  22.840        19
  22.860        16
  22.880        28
  22.900        20
  22.920        23
  22.940        26
  22.960        19
  22.980        19
  23.000        26
  23.020        28
  23.040        32
  23.060        21
  23.080        19
  23.100        24
  23.120        16
  23.140        22
  23.160        22
  23.180        24
  23.200        22
  23.220        24
  23.240        22
  23.260        17
  23.280        13
  23.300        23
  23.320        32
  23.340        20
  23.360        22
  23.380        15
  23.400        24
  23.420        23
  23.440        22
  23.460        21
  23.480        26
  23.500        19
  23.520        29
  23.540        24
  23.560        26
  23.580        21
  23.600        25
  23.620        25
  23.640        24
  23.660        34
  23.680        29
  23.700        29
  23.720        16
  23.740        25
  23.760        25
  23.780        17
  23.800        23
  23.820        16
  23.840        19
  23.860        10
  23.880        23
  23.900        29
  23.920        21
  23.940        22
  23.960        27
  23.980        25
  24.000        27
  24.020        29
  24.040        31
  24.060        16
  24.080        28
  24.100        17
  24.120        16
  24.140        27
  24.160        24
  24.180        24
  24.200        21
  24.220        17
  24.240        26
  24.260        22
  24.280        15
  24.300        30
  24.320        13
  24.340        21
  24.360        17
  24.380        26
  24.400        24
  24.420        17
  24.440        22
  24.460        13
  24.480        27
  24.500        13
  24.520        17
  24.540        27
  24.560        21
  24.580        24
  24.600        16
  24.620        26
  24.640        26
  24.660        29
  24.680        16
  24.700        21
  24.720        20
  24.740        27
  24.760        20
  24.780        23
  24.800        23
  24.820        25
  24.840        24
  24.860        16
  24.880        24
  24.900        16
  24.920        17
  24.940        23
  24.960        22
  24.980        23
  25.000        22
  25.020        25
  25.040        17
  25.060        19
  25.080        24
  25.100        17
  25.120        12
  25.140        24
  25.160        22
  25.180        16
  25.200        23
  25.220        30
  25.240        22
  25.260        24
  25.280        24
  25.300        24
  25.320        27
  25.340        25
  25.360        28
  25.380        28
  25.400        27
  25.420        16
  25.440        46
  25.460        46
  25.480        43
  25.500        47
  25.520        40
  25.540        50
  25.560        53
  25.580        36
  25.600        46
  25.620        43
  25.640        43
  25.660        36
  25.680        31
  25.700        29
  25.720        29
  25.740        24
  25.760        22
  25.780        22
  25.800        24
  25.820        15
  25.840        25
  25.860        16
  25.880        12
  25.900        21
  25.920        31
  25.940        28
  25.960        20
  25.980        21
  26.000        21
  26.020        26
  26.040        24
  26.060        16
  26.080        26
  26.100        16
  26.120        24
  26.140        17
  26.160        22
  26.180        25
  26.200        20
  26.220        31
  26.240        23
  26.260        27
  26.280        17
  26.300        26
  26.320        23
  26.340        20
  26.360        22
  26.380        32
  26.400        26
  26.420        21
  26.440        26
  26.460        16
  26.480        21
  26.500        25
  26.520        17
  26.540        25
  26.560        27
  26.580        16
  26.600        22
  26.620        24
  26.640        32
  26.660        22
  26.680        22
  26.700        21
  26.720        22
  26.740        21
  26.760        19
  26.780        32
  26.800        16
  26.820        26
  26.840        26
  26.860        29
  26.880        29
  26.900        21
  26.920        23
  26.940        19
  26.960        28
  26.980        31
  27.000        19
  27.020        24
  27.040        22
  27.060        32
  27.080        32
  27.100        28
  27.120        34
  27.140        33
  27.160        29
  27.180        27
  27.200        20
  27.220        33
  27.240        38
  27.260        38
  27.280        26
  27.300        25
  27.320        28
  27.340        38
  27.360        36
  27.380        40
  27.400        31
  27.420        40
  27.440        37
  27.460        31
  27.480        31
  27.500        33
  27.520        43
  27.540        44
  27.560        53
  27.580        44
  27.600        46
  27.620        38
  27.640        56
  27.660        60
  27.680        57
  27.700        68
  27.720        53
  27.740        65
  27.760        90
  27.780        79
  27.800        88
  27.820        90
  27.840       110
  27.860       121
  27.880       116
  27.900       129
  27.920       144
  27.940       148
  27.960       158
  27.980       184
  28.000       234
  28.020       285
  28.040       368
  28.060       457
  28.080       585
  28.100       852
  28.120      1082
  28.140      1521
  28.160      2218
  28.180      3058
  28.200      4489
  28.220      6400
  28.240      8760
  28.260     10120
  28.280     10261
  28.300      9741
  28.320      8482
  28.340      6384
  28.360      4624
  28.380      3226
  28.400      2016
  28.420      1169
  28.440       660
  28.460       400
  28.480       376
  28.500       262
  28.520       259
  28.540       204
  28.560       169
  28.580       161
  28.600       134
  28.620       129
  28.640        84
  28.660        81
  28.680        82
  28.700        68
  28.720        70
  28.740        62
  28.760        62
  28.780        62
  28.800        56
  28.820        53
  28.840        50
  28.860        36
  28.880        36
  28.900        43
  28.920        34
  28.940        53
  28.960        40
  28.980        37
  29.000        32
  29.020        40
  29.040        47
  29.060        40
  29.080        33
  29.100        28
  29.120        40
  29.140        22
  29.160        22
  29.180        28
  29.200        22
  29.220        31
  29.240        29
  29.260        33
  29.280        37
  29.300        30
  29.320        24
  29.340        31
  29.360        32
  29.380        26
  29.400        24
  29.420        22
  29.440        23
  29.460        32
  29.480        25
  29.500        13
  29.520        30
  29.540        17
  29.560        26
  29.580        27
  29.600        22
  29.620        22
  29.640        28
  29.660        26
  29.680        25
  29.700        28
  29.720        27
  29.740        23
  29.760        22
  29.780        26
  29.800        21
  29.820        10
  29.840        22
  29.860        22
  29.880        19
  29.900        19
  29.920        19
  29.940        29
  29.960        17
  29.980        21
  30.000        19
  30.020        20
  30.040        12
  30.060        27
  30.080        23
  30.100        16
  30.120        19
  30.140        19
  30.160        23
  30.180        16
  30.200        19
  30.220        16
  30.240        23
  30.260        21
  30.280        17
  30.300        23
  30.320        16
  30.340        24
  30.360        22
  30.380        17
  30.400        10
  30.420        19
  30.440        24
  30.460        20
  30.480        13
  30.500        19
  30.520        20
  30.540        12
  30.560        21
  30.580        21
  30.600        16
  30.620        20
  30.640        16
  30.660        24
  30.680        12
  30.700        19
  30.720        17
  30.740        26
  30.760        16
  30.780        25
  30.800        15
  30.820        21
  30.840        12
  30.860        23
  30.880        23
  30.900        20
  30.920         6
  30.940        23
  30.960        16
  30.980        21
  31.000        15
  31.020        21
  31.040        29
  31.060        16
  31.080        17
  31.100        13
  31.120        17
  31.140        19
  31.160        13
  31.180        32
  31.200        12
  31.220        21
  31.240        17
  31.260        26
  31.280        13
  31.300        32
  31.320        16
  31.340        19
  31.360        23
  31.380        24
  31.400        19
  31.420        23
  31.440        17
  31.460        26
  31.480        25
  31.500        21
  31.520        29
  31.540        38
  31.560        23
  31.580        36
  31.600        39
  31.620        50
  31.640        57
  31.660        77
  31.680       108
  31.700       158
  31.720       222
  31.740       285
  31.760       334
  31.780       342
  31.800       342
  31.820       302
  31.840       256
  31.860       193
  31.880       193
  31.900       116
  31.920       104
  31.940        59
  31.960        49
  31.980        32
  32.000        38
  32.020        40
  32.040        31
  32.060        25
  32.080        20
  32.100        24
  32.120        22
  32.140        19
  32.160        22
  32.180        19
  32.200        26
  32.220        19
  32.240        12
  32.260        22
  32.280        13
  32.300        22
  32.320        17
  32.340        17
  32.360        16
  32.380        17
  32.400        26
  32.420        25
  32.440        20
  32.460        25
  32.480        15
  32.500        16
  32.520        23
  32.540        20
  32.560        25
  32.580        15
  32.600        16
  32.620        21
  32.640        25
  32.660        36
  32.680        36
  32.700        43
  32.720        47
  32.740        56
  32.760        60
  32.780        59
  32.800        51
  32.820        49
  32.840        37
  32.860        34
  32.880        15
  32.900        34
  32.920        17
  32.940        17
  32.960        17
  32.980        16
  33.000        25
  33.020        20
  33.040        26
  33.060        21
  33.080        17
  33.100        12
  33.120        17
  33.140        21
  33.160        31
  33.180        13
  33.200        12
  33.220        10
  33.240        15
  33.260        12
  33.280        32
  33.300        15
  33.320        15
  33.340        22
  33.360        17
  33.380        22
  33.400        26
  33.420         6
  33.440        24
  33.460        19
  33.480        27
  33.500        16
  33.520        17
  33.540        24
  33.560        22
  33.580        29
  33.600        19
  33.620        21
  33.640        19
  33.660        16
  33.680        19
  33.700        19
  33.720        25
  33.740        23
  33.760        16
  33.780        24
  33.800        16
  33.820        15
  33.840         9
  33.860        16
  33.880        24
  33.900        16
  33.920        17
  33.940        24
  33.960        23
  33.980        25
  34.000        21
  34.020        23
  34.040        22
  34.060        25
  34.080        25
  34.100        26
  34.120        21
  34.140        20
  34.160        21
  34.180        25
  34.200        23
  34.220        22
  34.240        43
  34.260        38
  34.280        47
  34.300        51
  34.320        67
  34.340       108
  34.360       153
  34.380       207
  34.400       243
  34.420       256
  34.440       237
  34.460       237
  34.480       184
  34.500       144
  34.520       132
  34.540       100
  34.560        75
  34.580        47
  34.600        42
  34.620        37
  34.640        29
  34.660        33
  34.680        27
  34.700        26
  34.720        24
  34.740        25
  34.760        13
  34.780        21
  34.800        16
  34.820        16
  34.840        19
  34.860        24
  34.880        25
  34.900        17
  34.920        22
  34.940        13
  34.960        23
  34.980        19
  35.000        24
  35.020        17
  35.040        26
  35.060        25
  35.080        29
  35.100        34
  35.120        37
  35.140        57
  35.160        56
  35.180        54
  35.200        43
  35.220        40
  35.240        32
  35.260        38
  35.280        29
  35.300        24
  35.320        16
  35.340        23
  35.360        26
  35.380        22
  35.400        16
  35.420        19
  35.440        20
  35.460        17
  35.480        21
  35.500        17
  35.520        19
  35.540        15
  35.560        12
  35.580        24
  35.600        33
  35.620        17
  35.640        23
  35.660        28
  35.680        23
  35.700        26
  35.720        26
  35.740        26
  35.760        17
  35.780        19
  35.800        29
  35.820        20
  35.840        31
  35.860        33
  35.880        15
  35.900        43
  35.920        24
  35.940        38
  35.960        33
  35.980        22
  36.000        32
  36.020        32
  36.040        43
  36.060        54
  36.080        60
  36.100        67
  36.120        92
  36.140       121
  36.160       156
  36.180       225
  36.200       327
  36.220       412
  36.240       576
  36.260       585
  36.280       519
  36.300       492
  36.320       424
  36.340       364
  36.360       302
  36.380       219
  36.400       166
  36.420       132
  36.440        88
  36.460        65
  36.480        44
  36.500        43
  36.520        37
  36.540        20
  36.560        43
  36.580        22
  36.600        24
  36.620        22
  36.640        28
  36.660        20
  36.680        21
  36.700        20
  36.720        13
  36.740        15
  36.760        26
  36.780        22
  36.800        24
  36.820        22
  36.840        16
  36.860        17
  36.880        34
  36.900        19
  36.920        13
  36.940        12
  36.960        16
  36.980        16
  37.000        27
  37.020        15
  37.040        20
  37.060        12
  37.080        23
  37.100        20
  37.120        16
  37.140        19
  37.160        19
  37.180        10
  37.200        19
  37.220        26
  37.240        20
  37.260        10
  37.280        15
  37.300        16
  37.320        23
  37.340        20
  37.360        12
  37.380        22
  37.400        12
  37.420        10
  37.440        27
  37.460        13
  37.480        21
  37.500        20
  37.520         9
  37.540        19
  37.560        12
  37.580        13
  37.600        12
  37.620        20
  37.640        15
  37.660        22
  37.680        19
  37.700        20
  37.720        29
  37.740        21
  37.760        30
  37.780        28
  37.800        32
  37.820        28
  37.840        30
  37.860        25
  37.880        25
  37.900        21
  37.920        15
  37.940        19
  37.960        22
  37.980        12
  38.000        13
  38.020        22
  38.040        16
  38.060         9
  38.080        15
  38.100        10
  38.120        16
  38.140        16
  38.160        13
  38.180        13
  38.200        12
  38.220        10
  38.240        20
  38.260        12
  38.280        10
  38.300        17
  38.320        17
  38.340        21
  38.360        23
  38.380        16
  38.400        20
  38.420        22
  38.440        21
  38.460        20
  38.480        26
  38.500        15
  38.520        12
  38.540        22
  38.560        23
  38.580        16
  38.600         9
  38.620        21
  38.640        12
  38.660        19
  38.680        10
  38.700        16
  38.720        12
  38.740        17
  38.760        20
  38.780        15
  38.800        16
  38.820        16
  38.840        15
  38.860        25
  38.880        12
  38.900        16
  38.920        17
  38.940        15
  38.960        16
  38.980        12
  39.000        10
  39.020        12
  39.040        22
  39.060        17
  39.080        10
  39.100        16
  39.120        21
  39.140        20
  39.160        20
  39.180        28
  39.200        19
  39.220        15
  39.240        22
  39.260        15
  39.280        16
  39.300        17
  39.320        16
  39.340        13
  39.360        17
  39.380        12
  39.400        10
  39.420        15
  39.440        12
  39.460        10
  39.480        12
  39.500        15
  39.520        16
  39.540        21
  39.560        15
  39.580        19
  39.600        19
  39.620        15
  39.640        19
  39.660        13
  39.680        16
  39.700        21
  39.720        15
  39.740        16
  39.760        16
  39.780        12
  39.800        15
  39.820        21
  39.840        10
  39.860        16
  39.880        22
  39.900        12
  39.920        21
  39.940        16
  39.960        17
  39.980        22
  40.000         2
  40.020        16
  40.040        12
  40.060        12
  40.080        24
  40.100        20
  40.120        13
  40.140        12
  40.160        22
  40.180        16
  40.200        15
  40.220        21
  40.240        13
  40.260        20
  40.280        13
  40.300        12
  40.320        21
  40.340        16
  40.360        16
  40.380        22
  40.400        19
  40.420        16
  40.440        16
  40.460        12
  40.480        19
  40.500        13
  40.520        15
  40.540        22
  40.560        10
  40.580        21
  40.600        19
  40.620        16
  40.640        27
  40.660        22
  40.680        16
  40.700        15
  40.720        16
  40.740        13
  40.760        10
  40.780        13
  40.800        19
  40.820        12
  40.840        15
  40.860        10
  40.880        16
  40.900        19
  40.920        16
  40.940        16
  40.960         9
  40.980        21
  41.000        15
  41.020        19
  41.040        17
  41.060        24
  41.080        19
  41.100        19
  41.120        12
  41.140        22
  41.160        16
  41.180        20
  41.200        16
  41.220        22
  41.240        20
  41.260        15
  41.280         9
  41.300        15
  41.320        23
  41.340        12
  41.360        19
  41.380        16
  41.400        28
  41.420        12
  41.440        27
  41.460        13
  41.480        19
  41.500        12
  41.520        12
  41.540        25
  41.560        25
  41.580        19
  41.600        23
  41.620        19
  41.640        12
  41.660        19
  41.680        16
  41.700        17
  41.720        22
  41.740        22
  41.760        17
  41.780        17
  41.800        17
  41.820        10
  41.840        16
  41.860        13
  41.880        22
  41.900        16
  41.920        15
  41.940        16
  41.960        13
  41.980        20
  42.000        20
  42.020        25
  42.040        16
  42.060        31
  42.080        12
  42.100        26
  42.120        24
  42.140        26
  42.160        28
  42.180        17
  42.200        26
  42.220        24
  42.240        38
  42.260        26
  42.280        29
  42.300        22
  42.320        28
  42.340        15
  42.360        20
  42.380        21
  42.400        22
  42.420        15
  42.440        21
  42.460        26
  42.480        30
  42.500        12
  42.520        21
  42.540        15
  42.560        15
  42.580        21
  42.600        22
  42.620        16
  42.640        23
  42.660        16
  42.680        16
  42.700        16
  42.720        26
  42.740        17
  42.760        21
  42.780        16
  42.800        21
  42.820        12
  42.840        19
  42.860        19
  42.880        21
  42.900        31
  42.920        15
  42.940        20
  42.960        21
  42.980        13
  43.000        20
  43.020        10
  43.040        20
  43.060        20
  43.080        15
  43.100        19
  43.120        17
  43.140        19
  43.160        25
  43.180        21
  43.200        17
  43.220        23
  43.240        16
  43.260        23
  43.280        37
  43.300        46
  43.320        34
  43.340        43
  43.360        62
  43.380        43
  43.400        42
  43.420        32
  43.440        26
  43.460        46
  43.480        31
  43.500        33
  43.520        33
  43.540        26
  43.560        26
  43.580        13
  43.600        29
  43.620        20
  43.640        16
  43.660        22
  43.680        16
  43.700        16
  43.720        16
  43.740        15
  43.760        13
  43.780        19
  43.800        25
  43.820        16
  43.840        22
  43.860        20
  43.880        21
  43.900        10
  43.920        15
  43.940        16
  43.960        12
  43.980        21
  44.000        16
  44.020        20
  44.040        24
  44.060        16
  44.080        20
  44.100        22
  44.120        16
  44.140        19
  44.160        15
  44.180        20
  44.200        17
  44.220        21
  44.240        28
  44.260        19
  44.280        22
  44.300        19
  44.320        24
  44.340        31
  44.360        20
  44.380        20
  44.400        16
  44.420        21
  44.440        16
  44.460        26
  44.480        16
  44.500        20
  44.520        27
  44.540        19
  44.560        28
  44.580        12
  44.600        25
  44.620        27
  44.640        19
  44.660        29
  44.680        22
  44.700        26
  44.720        25
  44.740        24
  44.760        21
  44.780        23
  44.800        26
  44.820        22
  44.840        26
  44.860        25
  44.880        29
  44.900        26
  44.920        30
  44.940        24
  44.960        33
  44.980        23
  45.000        32
  45.020        27
  45.040        29
  45.060        25
  45.080        25
  45.100        17
  45.120        32
  45.140        22
  45.160        27
  45.180        28
  45.200        25
  45.220        20
  45.240        28
  45.260        23
  45.280        34
  45.300        28
  45.320        23
  45.340        36
  45.360        27
  45.380        24
  45.400        23
  45.420        24
  45.440        27
  45.460        24
  45.480        25
  45.500        32
  45.520        33
  45.540        28
  45.560        33
  45.580        32
  45.600        24
  45.620        29
  45.640        28
  45.660        34
  45.680        34
  45.700        43
  45.720        30
  45.740        39
  45.760        33
  45.780        27
  45.800        32
  45.820        53
  45.840        43
  45.860        31
  45.880        28
  45.900        43
  45.920        31
  45.940        49
  45.960        40
  45.980        44
  46.000        38
  46.020        37
  46.040        56
  46.060        43
  46.080        53
  46.100        34
  46.120        38
  46.140        50
  46.160        53
  46.180        47
  46.200        43
  46.220        51
  46.240        47
  46.260        53
  46.280        57
  46.300        56
  46.320        70
  46.340        57
  46.360        65
  46.380        70
  46.400        67
  46.420        70
  46.440        67
  46.460        81
  46.480        77
  46.500       102
  46.520        96
  46.540       100
  46.560        98
  46.580       129
  46.600       136
  46.620       146
  46.640       136
  46.660       193
  46.680       198
  46.700       225
  46.720       249
  46.740       292
  46.760       313
  46.780       396
  46.800       453
  46.820       547
  46.840       729
  46.860      1004
  46.880      1296
  46.900      2106
  46.920      3102
  46.940      4733
  46.960      6642
  46.980      8779
  47.000     10020
  47.020      9801
  47.040      8556
  47.060      7039
  47.080      6006
  47.100      5715
  47.120      5402
  47.140      4872
  47.160      3994
  47.180      2830
  47.200      1772
  47.220      1062
  47.240       702
  47.260       533
  47.280       404
  47.300       334
  47.320       292
  47.340       225
  47.360       210
  47.380       163
  47.400       174
  47.420       144
  47.440       153
  47.460       136
  47.480       153
  47.500       184
  47.520       184
  47.540       204
  47.560       182
  47.580       163
  47.600       163
  47.620       144
  47.640       125
  47.660       134
  47.680       116
  47.700       132
  47.720        75
  47.740        75
  47.760        70
  47.780        65
  47.800        46
  47.820        49
  47.840        53
  47.860        50
  47.880        40
  47.900        47
  47.920        33
  47.940        47
  47.960        50
  47.980        40
  48.000        37
  48.020        39
  48.040        31
  48.060        31
  48.080        43
  48.100        27
  48.120        36
  48.140        21
  48.160        34
  48.180        34
  48.200        32
  48.220        29
  48.240        32
  48.260        29
  48.280        17
  48.300        32
  48.320        36
  48.340        32
  48.360        29
  48.380        29
  48.400        25
  48.420        28
  48.440        28
  48.460        29
  48.480        30
  48.500        23
  48.520        22
  48.540        29
  48.560        29
  48.580        21
  48.600        29
  48.620        27
  48.640        26
  48.660        30
  48.680        32
  48.700        30
  48.720        24
  48.740        23
  48.760        28
  48.780        22
  48.800        34
  48.820        30
  48.840        22
  48.860        27
  48.880        23
  48.900        21
  48.920        17
  48.940        33
  48.960        19
  48.980        21
  49.000        21
  49.020        31
  49.040        26
  49.060        22
  49.080        24
  49.100        17
  49.120        20
  49.140        20
  49.160        21
  49.180        26
  49.200        25
  49.220        19
  49.240        22
  49.260        16
  49.280        15
  49.300        22
  49.320        32
  49.340        19
  49.360        23
  49.380        23
  49.400        12
  49.420        20
  49.440        24
  49.460        20
  49.480        20
  49.500        25
  49.520        22
  49.540        30
  49.560        20
  49.580        10
  49.600        26
  49.620        12
  49.640        20
  49.660        10
  49.680        24
  49.700        12
  49.720        26
  49.740        22
  49.760        12
  49.780        27
  49.800        16
  49.820        25
  49.840        25
  49.860        12
  49.880        20
  49.900        25
  49.920        21
  49.940        21
  49.960        22
  49.980        27
  50.000        29
  50.020        28
  50.040        28
  50.060        15
  50.080        22
  50.100        32
  50.120        25
  50.140        17
  50.160        12
  50.180        16
  50.200        21
  50.220        21
  50.240        16
  50.260        23
  50.280        13
  50.300        17
  50.320        22
  50.340        16
  50.360        12
  50.380        24
  50.400        15
  50.420        20
  50.440        22
  50.460        24
  50.480        20
  50.500        19
  50.520        23
  50.540        16
  50.560        15
  50.580        15
  50.600        20
  50.620        12
  50.640        19
  50.660        13
  50.680        19
  50.700        17
  50.720        21
  50.740        20
  50.760        16
  50.780        25
  50.800        16
  50.820        13
  50.840        19
  50.860        20
  50.880        22
  50.900        16
  50.920        16
  50.940        12
  50.960        10
  50.980        19
  51.000        12
  51.020        19
  51.040        16
  51.060        19
  51.080        12
  51.100        19
  51.120        16
  51.140        15
  51.160        15
  51.180        19
  51.200        15
  51.220        12
  51.240        19
  51.260        13
  51.280        16
  51.300        16
  51.320        10
  51.340        19
  51.360        20
  51.380        21
  51.400        21
  51.420        17
  51.440        17
  51.460        15
  51.480        19
  51.500        22
  51.520         9
  51.540        10
  51.560        23
  51.580        12
  51.600        19
  51.620        19
  51.640        15
  51.660        13
  51.680        19
  51.700        21
  51.720        12
  51.740        15
  51.760        15
  51.780        16
  51.800        22
  51.820        21
  51.840        12
  51.860        27
  51.880        25
  51.900        19
  51.920        19
  51.940        21
  51.960        12
  51.980        12
  52.000        15
  52.020        12
  52.040        19
  52.060        16
  52.080        22
  52.100        21
  52.120        16
  52.140        15
  52.160        13
  52.180        22
  52.200        13
  52.220        13
  52.240        13
  52.260        21
  52.280        23
  52.300        21
  52.320        24
  52.340        22
  52.360        22
  52.380        13
  52.400        29
  52.420        27
  52.440        24
  52.460        16
  52.480        32
  52.500        25
  52.520        39
  52.540        32
  52.560        43
  52.580        23
  52.600        31
  52.620        25
  52.640        30
  52.660        26
  52.680        22
  52.700        23
  52.720        20
  52.740        15
  52.760        16
  52.780        30
  52.800        23
  52.820        16
  52.840        16
  52.860        21
  52.880        21
  52.900         7
  52.920        20
  52.940         7
  52.960        16
  52.980        19
  53.000        12
  53.020        26
  53.040        25
  53.060        13
  53.080        17
  53.100        16
  53.120        19
  53.140        23
  53.160        16
  53.180        27
  53.200        10
  53.220        19
  53.240        16
  53.260        22
  53.280        21
  53.300        19
  53.320        16
  53.340        10
  53.360        19
  53.380        12
  53.400        17
  53.420        20
  53.440        12
  53.460        19
  53.480        15
  53.500        24
  53.520        17
  53.540        20
  53.560        13
  53.580        13
  53.600        22
  53.620        12
  53.640        17
  53.660        13
  53.680        26
  53.700        21
  53.720        13
  53.740        20
  53.760        28
  53.780        19
  53.800        30
  53.820        22
  53.840        24
  53.860        16
  53.880        10
  53.900        16
  53.920        22
  53.940        23
  53.960        16
  53.980        23
  54.000        13
  54.020        16
  54.040        27
  54.060        19
  54.080        25
  54.100        13
  54.120        23
  54.140        20
  54.160        19
  54.180        28
  54.200        16
  54.220        12
  54.240        24
  54.260        21
  54.280        20
  54.300        21
  54.320        24
  54.340        26
  54.360        16
  54.380        19
  54.400        21
  54.420        25
  54.440        19
  54.460        15
  54.480        29
  54.500        30
  54.520        24
  54.540        16
  54.560        25
  54.580        22
  54.600        22
  54.620        17
  54.640        31
  54.660        17
  54.680        23
  54.700        30
  54.720        32
  54.740        26
  54.760        27
  54.780        31
  54.800        22
  54.820        28
  54.840        26
  54.860        16
  54.880        25
  54.900        23
  54.920        23
  54.940        36
  54.960        32
  54.980        27
  55.000        29
  55.020        37
  55.040        29
  55.060        23
  55.080        29
  55.100        32
  55.120        28
  55.140        32
  55.160        25
  55.180        32
  55.200        30
  55.220        27
  55.240        32
  55.260        32
  55.280        38
  55.300        43
  55.320        46
  55.340        50
  55.360        67
  55.380        67
  55.400        57
  55.420        77
  55.440        75
  55.460        94
  55.480       100
  55.500       136
  55.520       110
  55.540       146
  55.560       196
  55.580       201
  55.600       256
  55.620       338
  55.640       492
  55.660       645
  55.680      1030
  55.700      1560
  55.720      2227
  55.740      2766
  55.760      3025
  55.780      2851
  55.800      2381
  55.820      1892
  55.840      1466
  55.860      1354
  55.880      1466
  55.900      1536
  55.920      1398
  55.940      1296
  55.960       961
  55.980       660
  56.000       428
  56.020       302
  56.040       201
  56.060       179
  56.080       114
  56.100       116
  56.120        77
  56.140        65
  56.160        62
  56.180        54
  56.200        57
  56.220        49
  56.240        50
  56.260        42
  56.280        40
  56.300        51
  56.320        49
  56.340        37
  56.360        33
  56.380        33
  56.400        33
  56.420        36
  56.440        34
  56.460        56
  56.480        44
  56.500        64
  56.520        65
  56.540       102
  56.560       129
  56.580       153
  56.600       210
  56.620       193
  56.640       187
  56.660       134
  56.680       116
  56.700       118
  56.720       110
  56.740       116
  56.760       116
  56.780       102
  56.800        84
  56.820        67
  56.840        68
  56.860        39
  56.880        42
  56.900        26
  56.920        36
  56.940        38
  56.960        29
  56.980        21
  57.000        29
  57.020        12
  57.040        30
  57.060        23
  57.080        19
  57.100        30
  57.120        28
  57.140        15
  57.160        23
  57.180        23
  57.200        20
  57.220        24
  57.240        16
  57.260        27
  57.280        20
  57.300        13
  57.320        30
  57.340        21
  57.360        30
  57.380        23
  57.400        22
  57.420        31
  57.440        28
  57.460        33
  57.480        39
  57.500        50
  57.520        46
  57.540        56
  57.560        33
  57.580        29
  57.600        32
  57.620        27
  57.640        28
  57.660        32
  57.680        32
  57.700        33
  57.720        28
  57.740        20
  57.760        21
  57.780        16
  57.800        29
  57.820        12
  57.840        12
  57.860        17
  57.880        19
  57.900        22
  57.920        13
  57.940        19
  57.960        19
  57.980         9
  58.000        13
  58.020        22
  58.040        17
  58.060        12
  58.080        27
  58.100        15
  58.120        10
  58.140        13
  58.160        21
  58.180        25
  58.200        12
  58.220        12
  58.240        16
  58.260        21
  58.280        22
  58.300        21
  58.320        20
  58.340        15
  58.360        24
  58.380        43
  58.400        29
  58.420        34
  58.440        47
  58.460        50
  58.480        46
  58.500        40
  58.520        50
  58.540        32
  58.560        24
  58.580        28
  58.600        30
  58.620        33
  58.640        28
  58.660        32
  58.680        17
  58.700        26
  58.720        22
  58.740        22
  58.760        16
  58.780        17
  58.800        10
  58.820        16
  58.840        12
  58.860        17
  58.880        23
  58.900         9
  58.920        15
  58.940        15
  58.960        12
  58.980         6
  59.000        20
  59.020        10
  59.040        20
  59.060        12
  59.080        17
  59.100        12
  59.120        19
  59.140        16
  59.160        10
  59.180        12
  59.200        13
  59.220        16
  59.240        12
  59.260        15
  59.280        13
  59.300        16
  59.320        10
  59.340        13
  59.360        15
  59.380        23
  59.400        12
  59.420        13
  59.440        10
  59.460        16
  59.480        19
  59.500        16
  59.520        12
  59.540        13
  59.560         6
  59.580        16
  59.600        10
  59.620         9
  59.640        16
  59.660        12
  59.680        20
  59.700        19
  59.720        21
  59.740        17
  59.760        12
  59.780        15
  59.800         9
  59.820        16
  59.840        13
  59.860         6
  59.880        15
  59.900        17
  59.920        16
  59.940        10
  59.960        16
  59.980        10
  60.000        16
  60.020        15
  60.040        19
  60.060        10
  60.080        10
  60.100        12
  60.120        12
  60.140        12
  60.160        16
  60.180         9
  60.200        16
  60.220        12
  60.240        10
  60.260         9
  60.280        10
  60.300        12
  60.320        12
  60.340        19
  60.360        15
  60.380        12
  60.400         6
  60.420        16
  60.440        12
  60.460        15
  60.480        10
  60.500        12
  60.520        20
  60.540         5
  60.560        13
  60.580         7
  60.600         4
  60.620        17
  60.640        16
  60.660        17
  60.680        10
  60.700        10
  60.720         9
  60.740        12
  60.760         9
  60.780        13
  60.800        16
  60.820         6
  60.840        10
  60.860        12
  60.880        12
  60.900        21
  60.920        12
  60.940        12
  60.960        16
  60.980        19
  61.000        13
  61.020        17
  61.040         7
  61.060        16
  61.080        16
  61.100        16
  61.120         9
  61.140        26
  61.160        15
  61.180         6
  61.200        12
  61.220        20
  61.240        29
  61.260        12
  61.280        16
  61.300        25
  61.320        17
  61.340        19
  61.360        20
  61.380        17
  61.400        10
  61.420        10
  61.440        19
  61.460        12
  61.480         9
  61.500        10
  61.520        16
  61.540        16
  61.560        20
  61.580        12
  61.600        16
  61.620        12
  61.640        12
  61.660        10
  61.680        19
  61.700        20
  61.720         6
  61.740         9
  61.760        12
  61.780        12
  61.800        10
  61.820        13
  61.840        20
  61.860        15
  61.880         9
  61.900        16
  61.920        16
  61.940        17
  61.960        12
  61.980        10
  62.000        16
  62.020        10
  62.040        16
  62.060        10
  62.080        16
  62.100        10
  62.120        13
  62.140         4
  62.160        15
  62.180        17
  62.200         7
  62.220        13
  62.240         9
  62.260         9
  62.280        19
  62.300        20
  62.320         9
  62.340        10
  62.360        17
  62.380        13
  62.400         9
  62.420        10
  62.440        16
  62.460        20
  62.480        16
  62.500        21
  62.520        10
  62.540        10
  62.560        21
  62.580        17
  62.600        24
  62.620        17
  62.640        16
  62.660        20
  62.680        25
  62.700        25
  62.720        32
  62.740        32
  62.760        65
  62.780        72
  62.800        92
  62.820       125
  62.840       148
  62.860       187
  62.880       161
  62.900       125
  62.920        90
  62.940        77
  62.960        70
  62.980        72
  63.000        73
  63.020        75
  63.040        98
  63.060        79
  63.080        81
  63.100        53
  63.120        37
  63.140        32
  63.160        13
  63.180        13
  63.200        20
  63.220        16
  63.240        19
  63.260        16
  63.280        19
  63.300        16
  63.320        16
  63.340        12
  63.360        13
  63.380        13
  63.400        10
  63.420        10
  63.440        20
  63.460        10
  63.480        13
  63.500        12
  63.520        20
  63.540         7
  63.560        15
  63.580         7
  63.600        15
  63.620        16
  63.640         5
  63.660         9
  63.680        10
  63.700         9
  63.720        10
  63.740        12
  63.760         5
  63.780        12
  63.800        10
  63.820        12
  63.840        13
  63.860        12
  63.880        10
  63.900         9
  63.920        13
  63.940        10
  63.960         6
  63.980         9
  64.000        20
  64.020        13
  64.040        15
  64.060        15
  64.080         7
  64.100         9
  64.120        13
  64.140        12
  64.160        10
  64.180        12
  64.200        12
  64.220        15
  64.240        13
  64.260        12
  64.280        10
  64.300        10
  64.320        12
  64.340        12
  64.360        13
  64.380        15
  64.400        10
  64.420         9
  64.440        12
  64.460        13
  64.480        12
  64.500        12
  64.520        10
  64.540        10
  64.560        12
  64.580        12
  64.600         7
  64.620         5
  64.640        10
  64.660         9
  64.680        17
  64.700        12
  64.720        12
  64.740        16
  64.760        13
  64.780         9
  64.800        15
  64.820        10
  64.840        16
  64.860        12
  64.880        12
  64.900        12
  64.920        12
  64.940        16
  64.960         9
  64.980        10
  65.000        15
  65.020        13
  65.040        22
  65.060        10
  65.080        13
  65.100        16
  65.120        13
  65.140         9
  65.160        13
  65.180        19
  65.200         9
  65.220         9
  65.240        19
  65.260        13
  65.280        10
  65.300        16
  65.320         7
  65.340        13
  65.360        12
  65.380        16
  65.400        15
  65.420        10
  65.440        12
  65.460         5
  65.480        15
  65.500        12
  65.520        19
  65.540         5
  65.560        12
  65.580        12
  65.600        10
  65.620        16
  65.640        16
  65.660        12
  65.680         9
  65.700        12
  65.720        13
  65.740         9
  65.760         7
  65.780        12
  65.800         9
  65.820        12
  65.840        10
  65.860        19
  65.880        17
  65.900        12
  65.920        15
  65.940        17
  65.960        16
  65.980         7
  66.000        12
  66.020        12
  66.040        17
  66.060        17
  66.080         7
  66.100        12
  66.120        12
  66.140        16
  66.160        10
  66.180        19
  66.200        13
  66.220        17
  66.240        19
  66.260        19
  66.280        21
  66.300        10
  66.320        13
  66.340        25
  66.360        33
  66.380        33
  66.400        38
  66.420        29
  66.440        37
  66.460        37
  66.480        30
  66.500        36
  66.520        26
  66.540        34
  66.560        39
  66.580        36
  66.600        30
  66.620        20
  66.640        26
  66.660        21
  66.680        16
  66.700        12
  66.720        20
  66.740        20
  66.760        26
  66.780        12
  66.800        16
  66.820        15
  66.840        17
  66.860        20
  66.880        16
  66.900        20
  66.920        10
  66.940         5
  66.960        10
  66.980        12
  67.000        20
  67.020        16
  67.040        13
  67.060        13
  67.080        17
  67.100        13
  67.120        20
  67.140        12
  67.160        21
  67.180        15
  67.200        10
  67.220        25
  67.240        16
  67.260        17
  67.280        10
  67.300        19
  67.320         7
  67.340        15
  67.360        16
  67.380        21
  67.400        15
  67.420        12
  67.440        13
  67.460        16
  67.480        15
  67.500        13
  67.520        13
  67.540         7
  67.560        22
  67.580        20
  67.600        22
  67.620        23
  67.640        22
  67.660        20
  67.680        16
  67.700        30
  67.720        20
  67.740        22
  67.760        29
  67.780        12
  67.800        34
  67.820        38
  67.840        34
  67.860        50
  67.880        64
  67.900        82
  67.920       112
  67.940       148
  67.960       136
  67.980       156
  68.000       114
  68.020        98
  68.040        65
  68.060        73
  68.080        59
  68.100        70
  68.120        79
  68.140        88
  68.160        94
  68.180        98
  68.200        88
  68.220        81
  68.240        70
  68.260        49
  68.280        36
  68.300        56
  68.320        47
  68.340        44
  68.360        62
  68.380        68
  68.400        56
  68.420        64
  68.440        68
  68.460        73
  68.480        82
  68.500        98
  68.520       127
  68.540       182
  68.560       246
  68.580       349
  68.600       506
  68.620       761
  68.640      1024
  68.660      1162
  68.680       998
  68.700       894
  68.720       600
  68.740       462
  68.760       372
  68.780       345
  68.800       380
  68.820       475
  68.840       501
  68.860       519
  68.880       501
  68.900       388
  68.920       278
  68.940       179
  68.960       139
  68.980        98
  69.000        90
  69.020        70
  69.040        82
  69.060        77
  69.080        90
  69.100       102
  69.120        84
  69.140        94
  69.160        81
  69.180        68
  69.200        43
  69.220        47
  69.240        43
  69.260        43
  69.280        38
  69.300        47
  69.320        54
  69.340        50
  69.360        29
  69.380        31
  69.400        25
  69.420        23
  69.440        22
  69.460        21
  69.480        16
  69.500        20
  69.520        24
  69.540        16
  69.560        25
  69.580        16
  69.600        16
  69.620        19
  69.640        16
  69.660        20
  69.680        13
  69.700        16
  69.720        16
  69.740        13
  69.760        16
  69.780        15
  69.800        22
  69.820        10
  69.840        13
  69.860        12
  69.880        16
  69.900         9
  69.920        12
  69.940        20
  69.960        12
  69.980        16
  70.000        12
  70.020        16
  70.040        12
  70.060        10
  70.080        21
  70.100        12
  70.120        10
  70.140        17
  70.160        20
  70.180        10
  70.200        12
  70.220        17
  70.240        20
  70.260        15
  70.280        12
  70.300        20
  70.320        13
  70.340        13
  70.360        10
  70.380        15
  70.400        16
  70.420         7
  70.440        10
  70.460        16
  70.480        16
  70.500        17
  70.520        12
  70.540        16
  70.560        16
  70.580        17
  70.600        16
  70.620        13
  70.640        12
  70.660        15
  70.680        15
  70.700        15
  70.720        10
  70.740        12
  70.760        13
  70.780        10
  70.800        16
  70.820        10
  70.840        15
  70.860        13
  70.880         9
  70.900        19
  70.920        10
  70.940        13
  70.960        13
  70.980        17
  71.000        12
  71.020        10
  71.040         9
  71.060        13
  71.080        19
  71.100        16
  71.120        20
  71.140        12
  71.160        10
  71.180        12
  71.200        12
  71.220        12
  71.240        10
  71.260        15
  71.280        15
  71.300        15
  71.320         9
  71.340        10
  71.360        16
  71.380        22
  71.400         6
  71.420        15
  71.440        15
  71.460        12
  71.480        10
  71.500        10
  71.520        10
  71.540         9
  71.560         5
  71.580        16
  71.600        13
  71.620        12
  71.640        10
  71.660        10
  71.680        10
  71.700        12
  71.720        17
  71.740        19
  71.760         9
  71.780         9
  71.800        12
  71.820        19
  71.840        10
  71.860        15
  71.880        12
  71.900        12
  71.920        21
  71.940        23
  71.960        12
  71.980        10
  72.000        16
  72.020         9
  72.040        15
  72.060        13
  72.080        13
  72.100        12
  72.120        12
  72.140        16
  72.160        13
  72.180        10
  72.200        12
  72.220        12
  72.240        16
  72.260        20
  72.280        10
  72.300        16
  72.320        16
  72.340        12
  72.360        19
  72.380        15
  72.400        12
  72.420        10
  72.440        23
  72.460        12
  72.480        13
  72.500        20
  72.520        15
  72.540        25
  72.560        10
  72.580        17
  72.600        24
  72.620        15
  72.640        22
  72.660        12
  72.680        12
  72.700        13
  72.720        16
  72.740        26
  72.760        19
  72.780        24
  72.800        15
  72.820        16
  72.840        13
  72.860        15
  72.880        10
  72.900        17
  72.920        23
  72.940        19
  72.960        10
  72.980        12
  73.000        15
  73.020        13
  73.040        12
  73.060        16
  73.080        12
  73.100        12
  73.120         9
  73.140        16
  73.160        13
  73.180        15
  73.200        16
  73.220         9
  73.240        10
  73.260        16
  73.280        10
  73.300        10
  73.320        13
  73.340         7
  73.360        12
  73.380        10
  73.400         7
  73.420        10
  73.440        16
  73.460        12
  73.480        10
  73.500        22
  73.520        10
  73.540        12
  73.560        12
  73.580        13
  73.600        12
  73.620        12
  73.640        15
  73.660        12
  73.680        21
  73.700         9
  73.720         9
  73.740        19
  73.760        22
  73.780        19
  73.800        19
  73.820         7
  73.840        10
  73.860        13
  73.880        12
  73.900         9
  73.920        16
  73.940        12
  73.960        12
  73.980         5
  74.000        15
  74.020        10
  74.040        26
  74.060        21
  74.080        17
  74.100         9
  74.120        15
  74.140        17
  74.160        10
  74.180        16
  74.200        12
  74.220        21
  74.240        20
  74.260        13
  74.280        15
  74.300        16
  74.320        16
  74.340        12
  74.360        23
  74.380        16
  74.400        20
  74.420        15
  74.440        16
  74.460        19
  74.480        12
  74.500        21
  74.520        10
  74.540        16
  74.560        13
  74.580        17
  74.600        12
  74.620        25
  74.640        10
  74.660        21
  74.680        22
  74.700        13
  74.720        16
  74.740        21
  74.760        16
  74.780        16
  74.800        10
  74.820        12
  74.840        19
  74.860        16
  74.880        12
  74.900        13
  74.920        12
  74.940        15
  74.960        22
  74.980        10
  75.000        21
  75.020        15
  75.040        10
  75.060        16
  75.080        28
  75.100        13
  75.120        16
  75.140        16
  75.160        23
  75.180        12
  75.200        30
  75.220        20
  75.240        24
  75.260        21
  75.280        20
  75.300        32
  75.320        27
  75.340        16
  75.360        24
  75.380        27
  75.400        22
  75.420        33
  75.440        34
  75.460        39
  75.480        37
  75.500        47
  75.520        37
  75.540        50
  75.560        40
  75.580        54
  75.600        49
  75.620        53
  75.640        82
  75.660        79
  75.680       121
  75.700       139
  75.720       196
  75.740       268
  75.760       342
  75.780       462
  75.800       670
  75.820       778
  75.840       829
  75.860       894
  75.880       767
  75.900       556
  75.920       449
  75.940       338
  75.960       285
  75.980       313
  76.000       338
  76.020       361
  76.040       432
  76.060       457
  76.080       424
  76.100       396
  76.120       313
  76.140       198
  76.160       153
  76.180       118
  76.200        82
  76.220        73
  76.240        43
  76.260        49
  76.280        46
  76.300        43
  76.320        43
  76.340        29
  76.360        31
  76.380        24
  76.400        29
  76.420        17
  76.440        26
  76.460        24
  76.480        21
  76.500        17
  76.520        17
  76.540        19
  76.560        21
  76.580        20
  76.600        19
  76.620        21
  76.640        13
  76.660        26
  76.680        12
  76.700        24
  76.720        26
  76.740        10
  76.760        26
  76.780        16
  76.800        19
  76.820        26
  76.840        25
  76.860        29
  76.880        19
  76.900        22
  76.920        32
  76.940        42
  76.960        24
  76.980        36
  77.000        34
  77.020        39
  77.040        25
  77.060        26
  77.080        25
  77.100        28
  77.120        22
  77.140        22
  77.160        28
  77.180        26
  77.200        36
  77.220        23
  77.240        31
  77.260        32
  77.280        20
  77.300        27
  77.320        12
  77.340        16
  77.360        15
  77.380        17
  77.400        16
  77.420        17
  77.440        15
  77.460        15
  77.480        16
  77.500        13
  77.520         6
  77.540        12
  77.560        13
  77.580        12
  77.600        12
  77.620        12
  77.640        16
  77.660        16
  77.680        13
  77.700        16
  77.720        12
  77.740        23
  77.760        16
  77.780         6
  77.800        16
  77.820        15
  77.840        13
  77.860        12
  77.880        15
  77.900        22
  77.920        17
  77.940        22
  77.960        10
  77.980        19
  78.000        16
  78.020        24
  78.040        22
  78.060        30
  78.080        22
  78.100        43
  78.120        56
  78.140        72
  78.160        79
  78.180        88
  78.200        81
  78.220        81
  78.240        65
  78.260        49
  78.280        39
  78.300        37
  78.320        32
  78.340        31
  78.360        38
  78.380        44
  78.400        53
  78.420        43
  78.440        39
  78.460        33
  78.480        20
  78.500        22
  78.520        23
  78.540        13
  78.560        12
  78.580        16
  78.600        19
  78.620        15
  78.640         7
  78.660        16
  78.680        12
  78.700        15
  78.720        10
  78.740        16
  78.760        15
  78.780        15
  78.800        16
  78.820        17
  78.840         6
  78.860        10
  78.880        19
  78.900        12
  78.920         9
  78.940        16
  78.960        20
  78.980        16
  79.000        19
  79.020        12
  79.040        16
  79.060        12
  79.080        10
  79.100        12
  79.120        16
  79.140        12
  79.160        10
  79.180        12
  79.200        12
  79.220        16
  79.240        12
  79.260        10
  79.280        19
  79.300        19
  79.320        10
  79.340        12
  79.360         9
  79.380        15
  79.400        12
  79.420        10
  79.440        12
  79.460         6
  79.480        10
  79.500        17
  79.520        10
  79.540        10
  79.560        16
  79.580        15
  79.600        12
  79.620        12
  79.640        13
  79.660        15
  79.680        24
  79.700         9
  79.720        10
  79.740        12
  79.760        10
  79.780        13
  79.800        10
  79.820        15
  79.840        12
  79.860        10
  79.880        12
  79.900        13
  79.920         9
  79.940        16
  79.960        12
  79.980        10
  80.000        13
  80.020        12
  80.040        12
  80.060        12
  80.080        15
  80.100         9
  80.120        12
  80.140        10
  80.160        12
  80.180        10
  80.200        19
  80.220        13
  80.240        12
  80.260        13
  80.280        12
  80.300        12
  80.320        12
  80.340        15
  80.360         9
  80.380        12
  80.400         6
  80.420        12
  80.440        16
  80.460        15
  80.480        10
  80.500        12
  80.520         7
  80.540        15
  80.560        10
  80.580         5
  80.600         7
  80.620         9
  80.640        16
  80.660        13
  80.680        12
  80.700        10
  80.720        10
  80.740        16
  80.760        19
  80.780        17
  80.800        10
  80.820        12
  80.840        15
  80.860         4
  80.880        17
  80.900        20
  80.920        12
  80.940        10
  80.960        16
  80.980        17
  81.000        12
  81.020        12
  81.040        12
  81.060        12
  81.080        19
  81.100        12
  81.120        17
  81.140        12
  81.160        20
  81.180        20
  81.200        10
  81.220        10
  81.240         7
  81.260        16
  81.280        21
  81.300         9
  81.320        20
  81.340        30
  81.360        28
  81.380        20
  81.400        20
  81.420        22
  81.440        16
  81.460        16
  81.480        12
  81.500        16
  81.520        12
  81.540        10
  81.560        12
  81.580        17
  81.600        16
  81.620        17
  81.640        12
  81.660        15
  81.680        10
  81.700         9
  81.720        17
  81.740        20
  81.760         9
  81.780        15
  81.800        12
  81.820        12
  81.840        16
  81.860        15
  81.880        20
  81.900        10
  81.920         6
  81.940        15
  81.960        10
  81.980        10
  82.000        13
  82.020        17
  82.040        12
  82.060        12
  82.080        12
  82.100        12
  82.120        12
  82.140         6
  82.160        12
  82.180        12
  82.200        21
  82.220         9
  82.240        15
  82.260        22
  82.280        12
  82.300        15
  82.320        12
  82.340        17
  82.360        19
  82.380         7
  82.400        10
  82.420        10
  82.440        16
  82.460        12
  82.480        20
  82.500        26
  82.520        12
  82.540         9
  82.560        16
  82.580        13
  82.600        16
  82.620        12
  82.640        15
  82.660        21
  82.680        13
  82.700        17
  82.720         9
  82.740        12
  82.760        16
  82.780        10
  82.800        10
  82.820         7
  82.840        10
  82.860        10
  82.880        16
  82.900        17
  82.920        16
  82.940        17
  82.960        17
  82.980        12
  83.000        19
  83.020        12
  83.040        12
  83.060        16
  83.080        16
  83.100        17
  83.120        15
  83.140        15
  83.160        13
  83.180        12
  83.200        13
  83.220        16
  83.240         9
  83.260         5
  83.280        16
  83.300         7
  83.320        12
  83.340        12
  83.360        12
  83.380        10
  83.400        13
  83.420         7
  83.440        15
  83.460        12
  83.480         6
  83.500        16
  83.520        15
  83.540        15
  83.560        15
  83.580        10
  83.600        12
  83.620        19
  83.640        13
  83.660        10
  83.680        17
  83.700         9
  83.720        12
  83.740        12
  83.760         9
  83.780         9
  83.800        15
  83.820         5
  83.840        12
  83.860         9
  83.880        16
  83.900        13
  83.920         9
  83.940        12
  83.960        15
  83.980         6
  84.000        16
  84.020        16
  84.040        15
  84.060        13
  84.080        10
  84.100        10
  84.120         6
  84.140        10
  84.160        17
  84.180        15
  84.200        15
  84.220        15
  84.240        10
  84.260        16
  84.280        15
  84.300        10
  84.320        12
  84.340        20
  84.360        10
  84.380        13
  84.400        13
  84.420        12
  84.440         9
  84.460        15
  84.480        13
  84.500        16
  84.520        16
  84.540        12
  84.560         7
  84.580        12
  84.600         7
  84.620        12
  84.640        28
  84.660        15
  84.680        19
  84.700        12
  84.720        13
  84.740        12
  84.760        19
  84.780        13
  84.800        16
  84.820        10
  84.840        16
  84.860         6
  84.880         9
  84.900        15
  84.920        16
  84.940        12
  84.960        22
  84.980        10
  85.000        15
  85.020        17
  85.040        16
  85.060        24
  85.080        20
  85.100        16
  85.120        17
  85.140        15
  85.160        20
  85.180        15
  85.200        17
  85.220        12
  85.240        12
  85.260        15
  85.280        16
  85.300        20
  85.320         9
  85.340        19
  85.360         9
  85.380        15
  85.400        12
  85.420        13
  85.440        10
  85.460        23
  85.480        22
  85.500        16
  85.520        13
  85.540         7
  85.560        16
  85.580        22
  85.600        19
  85.620        10
  85.640        17
  85.660        16
  85.680        16
  85.700        22
  85.720        16
  85.740        21
  85.760        17
  85.780        26
  85.800        15
  85.820        19
  85.840        16
  85.860        16
  85.880        16
  85.900        28
  85.920        23
  85.940        17
  85.960        15
  85.980        26
  86.000        21
  86.020         9
  86.040        22
  86.060        21
  86.080        23
  86.100        21
  86.120        17
  86.140        17
  86.160        15
  86.180        16
  86.200        13
  86.220        16
  86.240        19
  86.260        25
  86.280        19
  86.300        22
  86.320        16
  86.340        16
  86.360        22
  86.380        25
  86.400        24
  86.420        28
  86.440        19
  86.460        26
  86.480        23
  86.500        26
  86.520        28
  86.540        16
  86.560        28
  86.580        16
  86.600        23
  86.620        27
  86.640        25
  86.660        34
  86.680        24
  86.700        26
  86.720        24
  86.740        36
  86.760        33
  86.780        32
  86.800        38
  86.820        43
  86.840        47
  86.860        47
  86.880        43
  86.900        50
  86.920        47
  86.940        53
  86.960        53
  86.980        43
  87.000        65
  87.020        62
  87.040        77
  87.060        70
  87.080        82
  87.100        73
  87.120        82
  87.140       114
  87.160       129
  87.180       134
  87.200       169
  87.220       225
  87.240       285
  87.260       388
  87.280       515
  87.300       696
  87.320       936
  87.340      1204
  87.360      1413
  87.380      1521
  87.400      1383
  87.420      1246
  87.440       992
  87.460       750
  87.480       600
  87.500       542
  87.520       408
  87.540       408
  87.560       436
  87.580       470
  87.600       600
  87.620       670
  87.640       745
  87.660       712
  87.680       640
  87.700       552
  87.720       441
  87.740       331
  87.760       256
  87.780       176
  87.800       146
  87.820       116
  87.840       129
  87.860        96
  87.880        62
  87.900        56
  87.920        56
  87.940        67
  87.960        60
  87.980        54
  88.000        37
  88.020        43
  88.040        43
  88.060        38
  88.080        32
  88.100        36
  88.120        25
  88.140        32
  88.160        20
  88.180        27
  88.200        26
  88.220        25
  88.240        23
  88.260        32
  88.280        20
  88.300        22
  88.320        22
  88.340        24
  88.360        19
  88.380        32
  88.400        24
  88.420        20
  88.440        21
  88.460        29
  88.480        16
  88.500        29
  88.520        26
  88.540        24
  88.560        20
  88.580        19
  88.600        28
  88.620        20
  88.640        15
  88.660        16
  88.680        28
  88.700        23
  88.720        19
  88.740        16
  88.760        16
  88.780        17
  88.800        12
  88.820        19
  88.840        12
  88.860        12
  88.880        21
  88.900        24
  88.920        19
  88.940        16
  88.960        12
  88.980        17
  89.000        21
  89.020        16
  89.040        16
  89.060        21
  89.080        17
  89.100        15
  89.120        19
  89.140        20
  89.160        24
  89.180        22
  89.200        22
  89.220        19
  89.240        20
  89.260        23
  89.280        15
  89.300        13
  89.320        16
  89.340        13
  89.360        19
  89.380        21
  89.400        20
  89.420        22
  89.440        10
  89.460        21
  89.480        17
  89.500        17
  89.520        16
  89.540        39
  89.560        30
  89.580        43
  89.600        53
  89.620        54
  89.640        62
  89.660        44
  89.680        42
  89.700        32
  89.720        34
  89.740        33
  89.760        22
  89.780        25
  89.800        19
  89.820        22
  89.840        21
  89.860        28
  89.880        29
  89.900        43
  89.920        32
  89.940        21
  89.960        24
  89.980        33
  90.000        24
  90.020        25
  90.040        15
  90.060        22
  90.080        21
  90.100        15
  90.120        22
  90.140        12
  90.160        13
  90.180        13
  90.200        15
  90.220        16
  90.240        22
  90.260        22
  90.280        15
  90.300        12
  90.320        21
  90.340        19
  90.360        21
  90.380        17
  90.400        13
  90.420        10
  90.440        20
  90.460        19
  90.480        12
  90.500        16
  90.520        12
  90.540        17
  90.560        17
  90.580        21
  90.600        12
  90.620        12
  90.640        13
  90.660        12
  90.680        16
  90.700        19
  90.720        19
  90.740         7
  90.760        13
  90.780        16
  90.800         7
  90.820        12
  90.840        15
  90.860         9
  90.880        12
  90.900        12
  90.920        10
  90.940        12
  90.960        16
  90.980        13
  91.000         9
  91.020        22
  91.040        12
  91.060         9
  91.080        19
  91.100        15
  91.120         9
  91.140        15
  91.160        19
  91.180        21
  91.200        21
  91.220        16
  91.240        16
  91.260        12
  91.280        16
  91.300        12
  91.320        12
  91.340        20
  91.360        10
  91.380        13
  91.400         7
  91.420        10
  91.440        13
  91.460        17
  91.480        13
  91.500        12
  91.520        13
  91.540         7
  91.560         6
  91.580        21
  91.600        10
  91.620        12
  91.640        17
  91.660        10
  91.680        16
  91.700        16
  91.720        10
  91.740        10
  91.760        16
  91.780        26
  91.800        16
  91.820        12
  91.840        16
  91.860        13
  91.880        16
  91.900        13
  91.920         9
  91.940        12
  91.960        12
  91.980        15
  92.000        24
  92.020        13
  92.040        12
  92.060        10
  92.080         9
  92.100         9
  92.120        13
  92.140        16
  92.160        12
  92.180        24
  92.200        19
  92.220        17
  92.240        16
  92.260        16
  92.280        16
  92.300        12
  92.320        16
  92.340        13
  92.360        17
  92.380        12
  92.400        15
  92.420        15
  92.440        13
  92.460        19
  92.480        24
  92.500        16
  92.520        12
  92.540        20
  92.560        16
  92.580        23
  92.600        16
  92.620        19
  92.640        19
  92.660        12
  92.680        20
  92.700        24
  92.720        21
  92.740        13
  92.760        29
  92.780        28
  92.800        29
  92.820        29
  92.840        27
  92.860        19
  92.880        21
  92.900        10
  92.920        20
  92.940        19
  92.960        27
  92.980        16
  93.000        24
  93.020        12
  93.040        24
  93.060        12
  93.080        16
  93.100        17
  93.120        23
  93.140        20
  93.160        20
  93.180        17
  93.200        16
  93.220        19
  93.240        22
  93.260        16
  93.280        10
  93.300        16
  93.320        12
  93.340        23
  93.360        15
  93.380        12
  93.400        17
  93.420        21
  93.440        13
  93.460        12
  93.480        16
  93.500        12
  93.520        28
  93.540        24
  93.560        16
  93.580        24
  93.600        25
  93.620        22
  93.640        20
  93.660        25
  93.680        27
  93.700        31
  93.720        26
  93.740        19
  93.760        32
  93.780        36
  93.800        27
  93.820        24
  93.840        25
  93.860        32
  93.880        37
  93.900        25
  93.920        37
  93.940        40
  93.960        50
  93.980        53
  94.000        67
  94.020        79
  94.040        86
  94.060       127
  94.080       127
  94.100       207
  94.120       295
  94.140       309
  94.160       441
  94.180       533
  94.200       585
  94.220       542
  94.240       484
  94.260       457
  94.280       357
  94.300       268
  94.320       216
  94.340       163
  94.360       148
  94.380       148
  94.400       141
  94.420       171
  94.440       187
  94.460       231
  94.480       234
  94.500       265
  94.520       313
  94.540       243
  94.560       228
  94.580       179
  94.600       148
  94.620       110
  94.640        79
  94.660        72
  94.680        67
  94.700        53
  94.720        31
  94.740        33
  94.760        37
  94.780        38
  94.800        32
  94.820        32
  94.840        28
  94.860        28
  94.880        31
  94.900        23
  94.920        27
  94.940        23
  94.960        24
  94.980        19
  95.000        17
  95.020        12
  95.040        16
  95.060        15
  95.080        15
  95.100        15
  95.120        29
  95.140        15
  95.160        15
  95.180        26
  95.200        38
  95.220        27
  95.240        27
  95.260        49
  95.280        50
  95.300        64
  95.320        54
  95.340        56
  95.360        50
  95.380        42
  95.400        51
  95.420        36
  95.440        31
  95.460        31
  95.480        24
  95.500        27
  95.520        26
  95.540        28
  95.560        27
  95.580        27
  95.600        32
  95.620        20
  95.640        30
  95.660        33
  95.680        26
  95.700        17
  95.720        39
  95.740        20
  95.760        16
  95.780        21
  95.800        16
  95.820        23
  95.840        15
  95.860        16
  95.880         6
  95.900        10
  95.920        12
  95.940        12
  95.960        15
  95.980        16
  96.000        10
  96.020         9
  96.040        12
  96.060        12
  96.080        16
  96.100        15
  96.120        12
  96.140        16
  96.160        16
  96.180        16
  96.200        16
  96.220        15
  96.240         9
  96.260        21
  96.280        12
  96.300        16
  96.320        16
  96.340        23
  96.360        17
  96.380        13
  96.400        15
  96.420        13
  96.440        16
  96.460        10
  96.480        15
  96.500        12
  96.520        15
  96.540        12
  96.560         5
  96.580        10
  96.600        16
  96.620        12
  96.640        12
  96.660        22
  96.680        24
  96.700        10
  96.720         7
  96.740        15
  96.760        12
  96.780         9
  96.800        10
  96.820        13
  96.840        19
  96.860        16
  96.880        13
  96.900        10
  96.920        15
  96.940        15
  96.960        12
  96.980        17
  97.000        16
  97.020        16
  97.040        13
  97.060        16
  97.080         6
  97.100        10
  97.120         7
  97.140        21
  97.160         7
  97.180        15
  97.200        10
  97.220         9
  97.240        10
  97.260        10
  97.280        10
  97.300        15
  97.320         7
  97.340        16
  97.360         9
  97.380        10
  97.400        15
  97.420        10
  97.440        10
  97.460        10
  97.480        10
  97.500        13
  97.520        10
  97.540        10
  97.560        12
  97.580        10
  97.600        16
  97.620        13
  97.640         7
  97.660        12
  97.680        16
  97.700        12
  97.720        15
  97.740        20
  97.760        10
  97.780        12
  97.800         7
  97.820        10
  97.840        13
  97.860        15
  97.880         9
  97.900        16
  97.920        12
  97.940        13
  97.960        12
  97.980        12
  98.000        10
  98.020        15
  98.040        15
  98.060         9
  98.080        10
  98.100         5
  98.120        19
  98.140        15
  98.160        10
  98.180        12
  98.200        21
  98.220         9
  98.240        13
  98.260        12
  98.280         7
  98.300        10
  98.320        15
  98.340         9
  98.360        13
  98.380        12
  98.400        16
  98.420        12
  98.440        20
  98.460        19
  98.480        12
  98.500        19
  98.520        16
  98.540        26
  98.560        26
  98.580        24
  98.600        32
  98.620        29
  98.640        26
  98.660        33
  98.680        24
  98.700        23
  98.720        19
  98.740        12
  98.760        13
  98.780        10
  98.800        16
  98.820        19
  98.840        16
  98.860        12
  98.880        12
  98.900        23
  98.920        23
  98.940        24
  98.960        28
  98.980        31
  99.000        27
  99.020        23
  99.040        22
  99.060        19
  99.080         9
  99.100        19
  99.120        17
  99.140        12
  99.160        17
  99.180        10
  99.200        10
  99.220        15
  99.240        10
  99.260         9
  99.280        16
  99.300        15
  99.320        15
  99.340         9
  99.360        15
  99.380        21
  99.400        16
  99.420        12
  99.440        16
  99.460        12
  99.480        12
  99.500        16
  99.520        17
  99.540        10
  99.560         9
  99.580        15
  99.600        10
  99.620         9
  99.640        10
  99.660         9
  99.680         9
  99.700        12
  99.720        12
  99.740        20
  99.760        12
  99.780        12
  99.800        16
  99.820        10
  99.840         9
  99.860        12
  99.880        12
  99.900        10
  99.920        15
  99.940        13
  99.960         4
  99.980        12
 100.000        16
 100.020        12
 100.040        12
 100.060        12
 100.080        10
 100.100         5
 100.120        12
 100.140        10
 100.160        13
 100.180        10
 100.200        16
 100.220         9
 100.240        16
 100.260         6
 100.280        12
 100.300         6
 100.320        10
 100.340        10
 100.360        10
 100.380         9
 100.400        12
 100.420        16
 100.440        15
 100.460        19
 100.480        13
 100.500        10
 100.520        10
 100.540        16
 100.560        12
 100.580        19
 100.600        13
 100.620        12
 100.640         9
 100.660        10
 100.680        16
 100.700        13
 100.720        12
 100.740        12
 100.760        12
 100.780        10
 100.800        10
 100.820        12
 100.840        15
 100.860         6
 100.880        16
 100.900        16
 100.920        15
 100.940        13
 100.960        12
 100.980        19
 101.000        12
 101.020        19
 101.040        10
 101.060        19
 101.080        10
 101.100        12
 101.120        16
 101.140        20
 101.160        17
 101.180        15
 101.200        12
 101.220        16
 101.240        17
 101.260        12
 101.280        12
 101.300        13
 101.320        13
 101.340        12
 101.360        10
 101.380        12
 101.400        20
 101.420        15
 101.440        13
 101.460        12
 101.480        15
 101.500         9
 101.520        16
 101.540        16
 101.560        15
 101.580         2
 101.600        16
 101.620        22
 101.640        10
 101.660        10
 101.680        10
 101.700        19
 101.720        17
 101.740        16
 101.760        16
 101.780        20
 101.800        12
 101.820         7
 101.840        15
 101.860         9
 101.880         6
 101.900        12
 101.920        16
 101.940        16
 101.960        13
 101.980        17
 102.000        13
 102.020        10
 102.040        19
 102.060        12
 102.080        12
 102.100        19
 102.120        10
 102.140        12
 102.160         6
 102.180        10
 102.200        12
 102.220        12
 102.240        12
 102.260        16
 102.280        17
 102.300        19
 102.320        12
 102.340        10
 102.360         6
 102.380        16
 102.400        21
 102.420        16
 102.440        16
 102.460        12
 102.480        13
 102.500        15
 102.520        20
 102.540        15
 102.560        13
 102.580        12
 102.600        12
 102.620        12
 102.640        13
 102.660        12
 102.680         7
 102.700        10
 102.720        13
 102.740        19
 102.760        13
 102.780        12
 102.800        16
 102.820        13
 102.840        15
 102.860        16
 102.880        12
 102.900        15
 102.920        21
 102.940        28
 102.960        29
 102.980        22
 103.000        33
 103.020        17
 103.040        32
 103.060        22
 103.080        19
 103.100        16
 103.120        16
 103.140        22
 103.160        17
 103.180        16
 103.200        17
 103.220        15
 103.240        20
 103.260        10
 103.280        22
 103.300        20
 103.320        26
 103.340        21
 103.360        22
 103.380        20
 103.400        19
 103.420        25
 103.440        10
 103.460        21
 103.480        15
 103.500        12
 103.520        16
 103.540        13
 103.560        17
 103.580        12
 103.600        20
 103.620        10
 103.640        12
 103.660        17
 103.680        20
 103.700        23
 103.720        12
 103.740        10
 103.760        19
 103.780        22
 103.800        16
 103.820        10
 103.840        13
 103.860         9
 103.880        17
 103.900        12
 103.920        17
 103.940        17
 103.960        22
 103.980        15
 104.000        16
 104.020        16
 104.040        26
 104.060        29
 104.080        36
 104.100        38
 104.120        46
 104.140        36
 104.160        37
 104.180        42
 104.200        37
 104.220        21
 104.240        22
 104.260        20
 104.280        16
 104.300        22
 104.320        19
 104.340        22
 104.360        17
 104.380        25
 104.400        22
 104.420        17
 104.440        28
 104.460        22
 104.480        23
 104.500        30
 104.520        26
 104.540        27
 104.560        31
 104.580        26
 104.600        25
 104.620        15
 104.640        23
 104.660        16
 104.680        16
 104.700        12
 104.720        15
 104.740        19
 104.760        12
 104.780        13
 104.800        12
 104.820        17
 104.840        13
 104.860        12
 104.880        10
 104.900        10
 104.920        13
 104.940         9
 104.960        15
 104.980        16
 105.000        15
 105.020        23
 105.040        20
 105.060         6
 105.080        21
 105.100        29
 105.120        26
 105.140        23
 105.160        17
 105.180        19
 105.200        26
 105.220        23
 105.240        22
 105.260        23
 105.280        16
 105.300        16
 105.320        21
 105.340        15
 105.360        27
 105.380        32
 105.400        43
 105.420        19
 105.440        37
 105.460        21
 105.480        34
 105.500        38
 105.520        30
 105.540        39
 105.560        59
 105.580        60
 105.600        77
 105.620        90
 105.640        98
 105.660       102
 105.680       161
 105.700       182
 105.720       246
 105.740       302
 105.760       357
 105.780       412
 105.800       424
 105.820       388
 105.840       388
 105.860       342
 105.880       240
 105.900       219
 105.920       182
 105.940       141
 105.960       132
 105.980       136
 106.000       100
 106.020       110
 106.040        92
 106.060       102
 106.080       127
 106.100       148
 106.120       184
 106.140       210
 106.160       187
 106.180       225
 106.200       196
 106.220       201
 106.240       151
 106.260       118
 106.280       114
 106.300        86
 106.320        67
 106.340        56
 106.360        57
 106.380        50
 106.400        38
 106.420        36
 106.440        39
 106.460        26
 106.480        23
 106.500        19
 106.520        24
 106.540        28
 106.560        24
 106.580        19
 106.600        24
 106.620        29
 106.640        21
 106.660        24
 106.680        20
 106.700        22
 106.720        12
 106.740        20
 106.760        21
 106.780        16
 106.800        15
 106.820        16
 106.840        15
 106.860        10
 106.880        20
 106.900        15
 106.920        10
 106.940        15
 106.960        20
 106.980        17
 107.000        19
 107.020        13
 107.040        16
 107.060        22
 107.080        16
 107.100        15
 107.120        16
 107.140        15
 107.160         5
 107.180        15
 107.200        16
 107.220        13
 107.240        10
 107.260        15
 107.280        25
 107.300        12
 107.320        20
 107.340        12
 107.360        30
 107.380        13
 107.400        15
 107.420         9
 107.440        16
 107.460        19
 107.480        22
 107.500        21
 107.520        19
 107.540        22
 107.560        13
 107.580        13
 107.600        12
 107.620        16
 107.640        12
 107.660        19
 107.680        12
 107.700        12
 107.720        16
 107.740         6
 107.760        10
 107.780        12
 107.800         9
 107.820        16
 107.840        20
 107.860        20
 107.880        23
 107.900        10
 107.920        17
 107.940        17
 107.960        16
 107.980         9
 108.000        10
 108.020        16
 108.040        20
 108.060        25
 108.080        13
 108.100        12
 108.120        12
 108.140        12
 108.160        13
 108.180         9
 108.200        12
 108.220        13
 108.240        10
 108.260        10
 108.280        15
 108.300        12
 108.320        13
 108.340         7
 108.360        13
 108.380        13
 108.400        17
 108.420        17
 108.440         9
 108.460        12
 108.480        15
 108.500        16
 108.520        21
 108.540        10
 108.560        22
 108.580        12
 108.600        16
 108.620        15
 108.640        10
 108.660        22
 108.680        19
 108.700        22
 108.720        13
 108.740        19
 108.760         9
 108.780        12
 108.800        16
 108.820        13
 108.840        20
 108.860        21
 108.880        15
 108.900        16
 108.920        10
 108.940        16
 108.960        12
 108.980         9
 109.000        21
 109.020        10
 109.040        12
 109.060         9
 109.080        16
 109.100        16
 109.120        17
 109.140        16
 109.160        16
 109.180         7
 109.200        12
 109.220        15
 109.240        10
 109.260        16
 109.280        12
 109.300         9
 109.320         7
 109.340        21
 109.360        12
 109.380        12
 109.400        10
 109.420        15
 109.440        24
 109.460        13
 109.480        12
 109.500        10
 109.520        16
 109.540        13
 109.560        12
 109.580        12
 109.600        10
 109.620        10
 109.640        17
 109.660        15
 109.680        12
 109.700        17
 109.720        16
 109.740        17
 109.760        12
 109.780        16
 109.800        16
 109.820        15
 109.840        12
 109.860        19
 109.880        16
 109.900        19
 109.920        19
 109.940         7
 109.960        20
 109.980        16
 110.000        16
 110.020        10
 110.040        10
 110.060        23
 110.080        12
 110.100        13
 110.120        16
 110.140        13
 110.160        12
 110.180         9
 110.200        13
 110.220        16
 110.240        23
 110.260        21
 110.280        15
 110.300        16
 110.320        24
 110.340        30
 110.360        23
 110.380        22
 110.400        27
 110.420        32
 110.440        29
 110.460        31
 110.480        32
 110.500        26
 110.520        25
 110.540        31
 110.560        16
 110.580        16
 110.600        22
 110.620        17
 110.640        15
 110.660        27
 110.680        10
 110.700        16
 110.720        13
 110.740        30
 110.760        25
 110.780        25
 110.800        27
 110.820        24
 110.840        16
 110.860        20
 110.880        20
 110.900        16
 110.920        15
 110.940        26
 110.960        19
 110.980        21
 111.000        23
 111.020        19
 111.040        16
 111.060        21
 111.080        16
 111.100        12
 111.120        12
 111.140        22
 111.160        15
 111.180        16
 111.200        15
 111.220         9
 111.240        15
 111.260        16
 111.280        25
 111.300        17
 111.320        15
 111.340        16
 111.360        19
 111.380        13
 111.400        15
 111.420        17
 111.440        19
 111.460        19
 111.480        12
 111.500        19
 111.520        16
 111.540        12
 111.560        16
 111.580        15
 111.600        13
 111.620        17
 111.640        16
 111.660        25
 111.680         5
 111.700        17
 111.720        22
 111.740        16
 111.760        21
 111.780        23
 111.800        20
 111.820        12
 111.840        15
 111.860        15
 111.880        17
 111.900        19
 111.920        16
 111.940        20
 111.960        23
 111.980        19
 112.000        28
 112.020        17
 112.040        17
 112.060        25
 112.080        16
 112.100        21
 112.120        17
 112.140        15
 112.160        12
 112.180        19
 112.200        24
 112.220        31
 112.240        22
 112.260        15
 112.280        28
 112.300        22
 112.320        25
 112.340        24
 112.360        22
 112.380        29
 112.400        28
 112.420        30
 112.440        21
 112.460        19
 112.480        27
 112.500        32
 112.520        28
 112.540        38
 112.560        25
 112.580        36
 112.600        33
 112.620        39
 112.640        40
 112.660        50
 112.680        47
 112.700        50
 112.720        65
 112.740        49
 112.760        62
 112.780        59
 112.800        72
 112.820        92
 112.840       102
 112.860        98
 112.880       118
 112.900       158
 112.920       193
 112.940       246
 112.960       345
 112.980       392
 113.000       470
 113.020       542
 113.040       580
 113.060       566
 113.080       501
 113.100       488
 113.120       424
 113.140       368
 113.160       302
 113.180       256
 113.200       225
 113.220       158
 113.240       153
 113.260       156
 113.280       148
 113.300       121
 113.320       141
 113.340       129
 113.360       141
 113.380       174
 113.400       216
 113.420       243
 113.440       252
 113.460       292
 113.480       272
 113.500       289
 113.520       259
 113.540       231
 113.560       207
 113.580       187
 113.600       156
 113.620       127
 113.640        98
 113.660        77
 113.680        65
 113.700        70
 113.720        56
 113.740        50
 113.760        46
 113.780        33
 113.800        47
 113.820        43
 113.840        26
 113.860        28
 113.880        33
 113.900        23
 113.920        30
 113.940        27
 113.960        28
 113.980        23
 114.000        22
 114.020        20
 114.040        29
 114.060        25
 114.080        26
 114.100        21
 114.120        24
 114.140        19
 114.160        22
 114.180        23
 114.200        23
 114.220        21
 114.240        23
 114.260        20
 114.280        17
 114.300        16
 114.320        15
 114.340        31
 114.360        16
 114.380        16
 114.400        16
 114.420        17
 114.440        21
 114.460        19
 114.480        21
 114.500        15
 114.520        22
 114.540        19
 114.560        20
 114.580        24
 114.600        12
 114.620        20
 114.640        20
 114.660        22
 114.680        24
 114.700        15
 114.720         9
 114.740        19
 114.760        22
 114.780        24
 114.800        23
 114.820        21
 114.840        22
 114.860        16
 114.880        20
 114.900        15
 114.920        20
 114.940        22
 114.960        19
 114.980        26
 115.000        16
 115.020        16
 115.040        19
 115.060        22
 115.080        29
 115.100        21
 115.120        19
 115.140        25
 115.160        17
 115.180        19
 115.200        16
 115.220        22
 115.240        24
 115.260        22
 115.280        23
 115.300        20
 115.320        32
 115.340        31
 115.360        17
 115.380        31
 115.400        28
 115.420        34
 115.440        34
 115.460        38
 115.480        64
 115.500        65
 115.520        73
 115.540        77
 115.560        84
 115.580        70
 115.600        62
 115.620        70
 115.640        47
 115.660        40
 115.680        53
 115.700        33
 115.720        43
 115.740        26
 115.760        30
 115.780        32
 115.800        21
 115.820        25
 115.840        32
 115.860        20
 115.880        30
 115.900        38
 115.920        31
 115.940        32
 115.960        32
 115.980        43
 116.000        28
 116.020        51
 116.040        47
 116.060        46
 116.080        36
 116.100        43
 116.120        39
 116.140        32
 116.160        32
 116.180        47
 116.200        24
 116.220        46
 116.240        49
 116.260        38
 116.280        50
 116.300        75
 116.320        49
 116.340        59
 116.360        51
 116.380        46
 116.400        34
 116.420        30
 116.440        22
 116.460        25
 116.480        27
 116.500        20
 116.520        26
 116.540        23
 116.560        27
 116.580        13
 116.600        27
 116.620        31
 116.640        24
 116.660        19
 116.680        25
 116.700        20
 116.720        21
 116.740        38
 116.760        33
 116.780        37
 116.800        38
 116.820        24
 116.840        27
 116.860        31
 116.880        19
 116.900        22
 116.920        16
 116.940        13
 116.960        29
 116.980        20
 117.000        22
 117.020        20
 117.040        13
 117.060        13
 117.080        13
 117.100        24
 117.120        26
 117.140        15
 117.160        16
 117.180        17
 117.200        22
 117.220        19
 117.240        22
 117.260         7
 117.280        22
 117.300        19
 117.320        10
 117.340        16
 117.360        17
 117.380        12
 117.400        16
 117.420        12
 117.440        16
 117.460        16
 117.480        13
 117.500        15
 117.520        17
 117.540        15
 117.560        12
 117.580        13
 117.600        16
 117.620        16
 117.640        13
 117.660        15
 117.680        16
 117.700        10
 117.720         5
 117.740        10
 117.760        16
 117.780        12
 117.800        13
 117.820        12
 117.840        17
 117.860        16
 117.880        12
 117.900        27
 117.920        16
 117.940        20
 117.960        12
 117.980        10
 118.000        12
 118.020        16
 118.040        13
 118.060        16
 118.080        17
 118.100        16
 118.120        13
 118.140        15
 118.160        10
 118.180        17
 118.200        16
 118.220        13
 118.240        17
 118.260        13
 118.280        19
 118.300        16
 118.320        13
 118.340        13
 118.360        15
 118.380        13
 118.400        15
 118.420         7
 118.440        12
 118.460         7
 118.480        15
 118.500        12
 118.520        10
 118.540        20
 118.560        15
 118.580        16
 118.600        19
 118.620        17
 118.640        21
 118.660        19
 118.680        16
 118.700        16
 118.720        13
 118.740        12
 118.760        17
 118.780        19
 118.800        16
 118.820        12
 118.840        12
 118.860        10
 118.880         5
 118.900        12
 118.920        13
 118.940        10
 118.960        20
 118.980        16
 119.000        15
 119.020        15
 119.040        12
 119.060        15
 119.080        10
 119.100        12
 119.120        22
 119.140         7
 119.160        13
 119.180        10
 119.200        17
 119.220        21
 119.240        16
 119.260        13
 119.280        15
 119.300        20
 119.320        15
 119.340        19
 119.360        12
 119.380        12
 119.400        16
 119.420        21
 119.440        15
 119.460        13
 119.480        17
 119.500        13
 119.520        16
 119.540        16
 119.560        12
 119.580        16
 119.600        16
 119.620        16
 119.640        13
 119.660        13
 119.680        12
 119.700        16
 119.720        12
 119.740        23
 119.760        16
 119.780        10
 119.800        16
 119.820        10
 119.840        13
 119.860        12
 119.880        23
 119.900        19
 119.920        15
 119.940        19
 119.960        15
 119.980        12
 120.000        10
 120.020        15
 120.040         9
 120.060         9
 120.080        17
 120.100        19
 120.120        12
 120.140         9
 120.160        12
 120.180        12
 120.200        16
 120.220         9
 120.240        13
 120.260        12
 120.280        13
 120.300        15
 120.320        10
 120.340        20
 120.360        16
 120.380         7
 120.400        10
 120.420        12
 120.440        10
 120.460        12
 120.480        16
 120.500        20
 120.520        17
 120.540        20
 120.560        16
 120.580        12
 120.600         9
 120.620        17
 120.640        20
 120.660        16
 120.680        13
 120.700        24
 120.720         7
 120.740        20
 120.760        16
 120.780        16
 120.800        16
 120.820        16
 120.840        17
 120.860        20
 120.880        13
 120.900        21
 120.920        12
 120.940        16
 120.960        13
 120.980        10
 121.000         6
 121.020        12
 121.040        13
 121.060        16
 121.080        19
 121.100        12
 121.120        21
 121.140         7
 121.160        17
 121.180        13
 121.200        16
 121.220        24
 121.240        13
 121.260        12
 121.280        13
 121.300        20
 121.320        16
 121.340        19
 121.360        16
 121.380        20
 121.400        15
 121.420        19
 121.440         9
 121.460        21
 121.480        24
 121.500        16
 121.520        24
 121.540        27
 121.560        33
 121.580        29
 121.600        38
 121.620        36
 121.640        34
 121.660        23
 121.680        24
 121.700        22
 121.720        36
 121.740        22
 121.760        26
 121.780        17
 121.800        19
 121.820        21
 121.840        19
 121.860        26
 121.880        19
 121.900        12
 121.920        21
 121.940        16
 121.960        10
 121.980        24
 122.000        26
 122.020        20
 122.040        23
 122.060        23
 122.080        29
 122.100        24
 122.120        17
 122.140        22
 122.160        27
 122.180        31
 122.200        25
 122.220        23
 122.240        27
 122.260        28
 122.280        15
 122.300        19
 122.320        17
 122.340         9
 122.360        12
 122.380        15
 122.400        12
 122.420        17
 122.440        12
 122.460        12
 122.480        22
 122.500        13
 122.520        15
 122.540        21
 122.560        17
 122.580        22
 122.600        16
 122.620         9
 122.640        20
 122.660        24
 122.680        12
 122.700        16
 122.720        15
 122.740        10
 122.760        19
 122.780        20
 122.800        13
 122.820        13
 122.840        10
 122.860        12
 122.880        13
 122.900        10
 122.920        17
 122.940        19
 122.960        13
 122.980        12
 123.000        12
 123.020        25
 123.040        16
 123.060        13
 123.080        16
 123.100        13
 123.120        17
 123.140        20
 123.160        16
 123.180        17
 123.200        17
 123.220        22
 123.240        21
 123.260        20
 123.280        16
 123.300        16
 123.320        10
 123.340        19
 123.360        24
 123.380        12
 123.400        19
 123.420        17
 123.440        10
 123.460        12
 123.480         7
 123.500        12
 123.520        16
 123.540        20
 123.560        29
 123.580        20
 123.600        15
 123.620        17
 123.640        16
 123.660        10
 123.680         9
 123.700        20
 123.720        10
 123.740        16
 123.760        10
 123.780        21
 123.800        20
 123.820        17
 123.840        16
 123.860        12
 123.880         7
 123.900        12
 123.920        15
 123.940        19
 123.960        16
 123.980        12
 124.000        21
 124.020        12
 124.040        15
 124.060        17
 124.080        19
 124.100        27
 124.120        20
 124.140        17
 124.160        19
 124.180        15
 124.200        16
 124.220        22
 124.240        25
 124.260        10
 124.280        20
 124.300        16
 124.320        20
 124.340        15
 124.360        21
 124.380        16
 124.400        21
 124.420        15
 124.440        22
 124.460        19
 124.480        21
 124.500        16
 124.520        12
 124.540        20
 124.560        12
 124.580        16
 124.600        21
 124.620        20
 124.640        12
 124.660        20
 124.680        19
 124.700        24
 124.720        20
 124.740        20
 124.760        21
 124.780        16
 124.800        22
 124.820        23
 124.840        22
 124.860        19
 124.880        16
 124.900        28
 124.920        17
 124.940        29
 124.960        25
 124.980        19
 125.000        17
 125.020        20
 125.040        15
 125.060        21
 125.080        20
 125.100        25
 125.120        27
 125.140        15
 125.160        38
 125.180        31
 125.200        30
 125.220        26
 125.240        25
 125.260        24
 125.280        34
 125.300        24
 125.320        21
 125.340        25
 125.360        26
 125.380        32
 125.400        31
 125.420        28
 125.440        34
 125.460        24
 125.480        16
 125.500        32
 125.520        21
 125.540        25
 125.560        37
 125.580        34
 125.600        27
 125.620        29
 125.640        32
 125.660        32
 125.680        39
 125.700        42
 125.720        46
 125.740        50
 125.760        62
 125.780        59
 125.800        50
 125.820        82
 125.840        70
 125.860        86
 125.880       100
 125.900        88
 125.920        82
 125.940       108
 125.960       127
 125.980       156
 126.000       174
 126.020       207
 126.040       231
 126.060       278
 126.080       349
 126.100       432
 126.120       492
 126.140       590
 126.160       625
 126.180       645
 126.200       670
 126.220       625
 126.240       595
 126.260       519
 126.280       420
 126.300       380
 126.320       275
 126.340       237
 126.360       222
 126.380       176
 126.400       166
 126.420       146
 126.440       136
 126.460       134
 126.480       144
 126.500       121
 126.520       123
 126.540       146
 126.560       156
 126.580       148
 126.600       153
 126.620       169
 126.640       184
 126.660       207
 126.680       262
 126.700       320
 126.720       345
 126.740       320
 126.760       331
 126.780       306
 126.800       265
 126.820       282
 126.840       246
 126.860       201
 126.880       163
 126.900       129
 126.920       121
 126.940       110
 126.960       110
 126.980       118
 127.000        88
 127.020        57
 127.040        59
 127.060        51
 127.080        53
 127.100        62
 127.120        36
 127.140        28
 127.160        25
 127.180        28
 127.200        42
 127.220        21
 127.240        32
 127.260        33
 127.280        43
 127.300        22
 127.320        26
 127.340        32
 127.360        30
 127.380        30
 127.400        26
 127.420        31
 127.440        32
 127.460        27
 127.480        19
 127.500        28
 127.520        28
 127.540        22
 127.560        30
 127.580        21
 127.600        25
 127.620        25
 127.640        26
 127.660        22
 127.680        34
 127.700        20
 127.720        15
 127.740        23
 127.760        19
 127.780        25
 127.800        21
 127.820        21
 127.840        21
 127.860        16
 127.880        10
 127.900        29
 127.920        17
 127.940        21
 127.960        17
 127.980        23
 128.000        21
 128.020        22
 128.040        16
 128.060        10
 128.080        19
 128.100        17
 128.120        29
 128.140        19
 128.160        17
 128.180        23
 128.200        16
 128.220        17
 128.240        22
 128.260        20
 128.280        24
 128.300        19
 128.320        21
 128.340        20
 128.360        10
 128.380        19
 128.400        24
 128.420        25
 128.440        13
 128.460        20
 128.480        12
 128.500        10
 128.520        19
 128.540        21
 128.560         9
 128.580        19
 128.600        27
 128.620        20
 128.640        16
 128.660        16
 128.680        23
 128.700        22
 128.720        15
 128.740        16
 128.760        16
 128.780        16
 128.800         7
 128.820        20
 128.840        22
 128.860        21
 128.880        24
 128.900        22
 128.920        27
 128.940        23
 128.960        22
 128.980        19
 129.000        23
 129.020        20
 129.040        12
 129.060        19
 129.080        15
 129.100        21
 129.120        13
 129.140        21
 129.160        15
 129.180        16
 129.200         9
 129.220        25
 129.240        20
 129.260        20
 129.280        13
 129.300        16
 129.320        16
 129.340        32
 129.360        20
 129.380        16
 129.400        20
 129.420        21
 129.440        10
 129.460        25
 129.480        19
 129.500        20
 129.520        24
 129.540        10
 129.560        22
 129.580         7
 129.600        19
 129.620        10
 129.640        19
 129.660        16
 129.680        16
 129.700        10
 129.720        10
 129.740        15
 129.760        12
 129.780        12
 129.800        12
 129.820        15
 129.840        13
 129.860        21
 129.880        15
 129.900        23
 129.920        19
 129.940        17
 129.960        17
 129.980        19
 130.000        15
 130.020        12
 130.040        20
 130.060        19
 130.080        16
 130.100        16
 130.120        10
 130.140        10
 130.160         9
 130.180        13
 130.200        12
 130.220        16
 130.240        17
 130.260        16
 130.280        16
 130.300        19
 130.320        16
 130.340        13
 130.360        13
 130.380        13
 130.400        20
 130.420        13
 130.440        12
 130.460        20
 130.480        12
 130.500        23
 130.520        15
 130.540        16
 130.560        19
 130.580        25
 130.600        17
 130.620        10
 130.640        15
 130.660        16
 130.680        10
 130.700        15
 130.720        12
 130.740        12
 130.760        16
 130.780        10
 130.800        19
 130.820        20
 130.840        15
 130.860        16
 130.880        16
 130.900        17
 130.920        15
 130.940        17
 130.960        10
 130.980        24
 131.000        21
 131.020        15
 131.040        20
 131.060        26
 131.080        19
 131.100        22
 131.120        24
 131.140        15
 131.160        19
 131.180        20
 131.200        17
 131.220        13
 131.240        24
 131.260        12
 131.280        19
 131.300        17
 131.320        16
 131.340        15
 131.360        10
 131.380        17
 131.400        16
 131.420        10
 131.440        15
 131.460        13
 131.480         6
 131.500        16
 131.520        10
 131.540        12
 131.560        29
 131.580        12
 131.600        12
 131.620        16
 131.640        16
 131.660        20
 131.680        19
 131.700        24
 131.720        13
 131.740        16
 131.760        20
 131.780        16
 131.800        15
 131.820        12
 131.840        20
 131.860        22
 131.880        21
 131.900        12
 131.920         9
 131.940        23
 131.960        17
 131.980        19
 132.000        16
 132.020        13
 132.040        16
 132.060        24
 132.080        12
 132.100        12
 132.120        12
 132.140        21
 132.160        19
 132.180        16
 132.200        16
 132.220        23
 132.240        15
 132.260        17
 132.280        21
 132.300        17
 132.320        12
 132.340        17
 132.360        12
 132.380        16
 132.400        13
 132.420        13
 132.440        15
 132.460        17
 132.480        21
 132.500        16
 132.520        20
 132.540        13
 132.560        10
 132.580        15
 132.600        12
 132.620        19
 132.640        20
 132.660        24
 132.680        17
 132.700        12
 132.720        17
 132.740        15
 132.760        16
 132.780        16
 132.800        12
 132.820        10
 132.840        15
 132.860        12
 132.880         9
 132.900        23
 132.920        17
 132.940        19
 132.960        16
 132.980        12
 133.000        13
 133.020        20
 133.040        21
 133.060        10
 133.080        10
 133.100        10
 133.120        10
 133.140         9
 133.160        20
 133.180        13
 133.200        17
 133.220        23
 133.240        16
 133.260        19
 133.280        13
 133.300        17
 133.320        13
 133.340        16
 133.360        23
 133.380        24
 133.400        10
 133.420        13
 133.440        30
 133.460        15
 133.480        15
 133.500        21
 133.520        25
 133.540        19
 133.560        20
 133.580        20
 133.600        10
 133.620        15
 133.640        30
 133.660        19
 133.680        20
 133.700        19
 133.720        15
 133.740        17
 133.760        22
 133.780        28
 133.800        25
 133.820        22
 133.840        27
 133.860        28
 133.880        31
 133.900        32
 133.920        49
 133.940        34
 133.960        38
 133.980        39
 134.000        42
 134.020        36
 134.040        27
 134.060        30
 134.080        29
 134.100        28
 134.120        27
 134.140        34
 134.160        16
 134.180        31
 134.200        25
 134.220        24
 134.240        20
 134.260        21
 134.280        31
 134.300        16
 134.320        22
 134.340        27
 134.360        22
 134.380        31
 134.400        25
 134.420        22
 134.440        29
 134.460        26
 134.480        29
 134.500        24
 134.520        32
 134.540        24
 134.560        26
 134.580        26
 134.600        37
 134.620        34
 134.640        42
 134.660        40
 134.680        26
 134.700        32
 134.720        44
 134.740        37
 134.760        31
 134.780        46
 134.800        49
 134.820        47
 134.840        44
 134.860        50
 134.880        49
 134.900        59
 134.920        68
 134.940        62
 134.960        62
 134.980        84
 135.000        70
 135.020        98
 135.040       106
 135.060       118
 135.080       139
 135.100       136
 135.120       182
 135.140       216
 135.160       228
 135.180       262
 135.200       256
 135.220       256
 135.240       240
 135.260       222
 135.280       207
 135.300       182
 135.320       158
 135.340       148
 135.360       148
 135.380       114
 135.400       110
 135.420       112
 135.440        98
 135.460        81
 135.480        90
 135.500        84
 135.520        75
 135.540        77
 135.560        53
 135.580        75
 135.600        62
 135.620        64
 135.640        64
 135.660        56
 135.680        50
 135.700        65
 135.720        90
 135.740        73
 135.760        72
 135.780        92
 135.800       108
 135.820        94
 135.840       116
 135.860       125
 135.880       123
 135.900       136
 135.920       148
 135.940       129
 135.960        98
 135.980       102
 136.000       127
 136.020       121
 136.040        94
 136.060        92
 136.080        79
 136.100        72
 136.120        84
 136.140        51
 136.160        42
 136.180        47
 136.200        49
 136.220        40
 136.240        43
 136.260        32
 136.280        33
 136.300        33
 136.320        33
 136.340        36
 136.360        25
 136.380        34
 136.400        24
 136.420        26
 136.440        24
 136.460        13
 136.480        26
 136.500        23
 136.520        27
 136.540        24
 136.560        27
 136.580        24
 136.600        16
 136.620        21
 136.640        22
 136.660        19
 136.680        24
 136.700        31
 136.720        23
 136.740        20
 136.760        20
 136.780        29
 136.800        26
 136.820        19
 136.840        26
 136.860        21
 136.880        24
 136.900        23
 136.920        21
 136.940        12
 136.960        16
 136.980        32
 137.000        20
 137.020        17
 137.040        25
 137.060        24
 137.080        10
 137.100        17
 137.120        17
 137.140        32
 137.160        32
 137.180        22
 137.200        13
 137.220        20
 137.240        16
 137.260        12
 137.280        21
 137.300        20
 137.320        13
 137.340        17
 137.360        23
 137.380        16
 137.400        16
 137.420        17
 137.440        25
 137.460        20
 137.480        17
 137.500        19
 137.520        17
 137.540        16
 137.560        26
 137.580        21
 137.600        22
 137.620        20
 137.640        17
 137.660        12
 137.680        20
 137.700        13
 137.720        16
 137.740        20
 137.760        16
 137.780        25
 137.800        22
 137.820        25
 137.840        15
 137.860        16
 137.880        24
 137.900        17
 137.920        26
 137.940        21
 137.960        10
 137.980        15
 138.000        21
 138.020        19
 138.040        15
 138.060        20
 138.080        24
 138.100        26
 138.120        21
 138.140        16
 138.160        13
 138.180        16
 138.200        24
 138.220        25
 138.240        28
 138.260        32
 138.280        26
 138.300        28
 138.320        33
 138.340        40
 138.360        39
 138.380        36
 138.400        38
 138.420        57
 138.440        43
 138.460        43
 138.480        67
 138.500        62
 138.520        73
 138.540        72
 138.560        70
 138.580        59
 138.600        72
 138.620        54
 138.640        53
 138.660        57
 138.680        59
 138.700        47
 138.720        31
 138.740        33
 138.760        32
 138.780        36
 138.800        22
 138.820        42
 138.840        28
 138.860        29
 138.880        25
 138.900        39
 138.920        20
 138.940        31
 138.960        22
 138.980        17
 139.000        23
 139.020        33
 139.040        27
 139.060        29
 139.080        24
 139.100        27
 139.120        24
 139.140        29
 139.160        36
 139.180        38
 139.200        38
 139.220        26
 139.240        53
 139.260        40
 139.280        34
 139.300        40
 139.320        29
 139.340        39
 139.360        40
 139.380        30
 139.400        32
 139.420        43
 139.440        32
 139.460        26
 139.480        43
 139.500        31
 139.520        25
 139.540        29
 139.560        32
 139.580        13
 139.600        15
 139.620        22
 139.640        16
 139.660        12
 139.680        23
 139.700        15
 139.720        21
 139.740        25
 139.760        10
 139.780        19
 139.800        16
 139.820        12
 139.840        19
 139.860        21
 139.880        17
 139.900        16
 139.920        23
 139.940        16
 139.960        21
 139.980        13
 140.000        13
 140.020        12
 140.040        19
 140.060        19
 140.080        13
 140.100        17
 140.120        10
 140.140        28
 140.160        10
 140.180        15
 140.200        16
 140.220        24
 140.240        21
 140.260        19
 140.280        10
 140.300        13
 140.320        16
 140.340        20
 140.360        29
 140.380        16
 140.400        16
 140.420        16
 140.440        17
 140.460        20
 140.480        16
 140.500         9
 140.520        12
 140.540        16
 140.560         7
 140.580        10
 140.600        25
 140.620        19
 140.640        17
 140.660        15
 140.680        15
 140.700        15
 140.720        24
 140.740        12
 140.760        19
 140.780        22
 140.800         9
 140.820        16
 140.840        22
 140.860        10
 140.880        13
 140.900        16
 140.920        12
 140.940        17
 140.960        13
 140.980        17
 141.000        13
 141.020        21
 141.040        12
 141.060        16
 141.080        19
 141.100        16
 141.120        15
 141.140        17
 141.160        12
 141.180        22
 141.200        16
 141.220        15
 141.240        13
 141.260        16
 141.280        20
 141.300        12
 141.320         7
 141.340        20
 141.360        13
 141.380        23
 141.400        17
 141.420        17
 141.440        26
 141.460        16
 141.480        13
 141.500        17
 141.520        15
 141.540         9
 141.560        15
 141.580        15
 141.600        15
 141.620        16
 141.640        20
 141.660        15
 141.680        16
 141.700        19
 141.720        16
 141.740        10
 141.760        12
 141.780        19
 141.800        16
 141.820        20
 141.840        10
 141.860        13
 141.880        16
 141.900        16
 141.920        21
 141.940        19
 141.960        12
 141.980        15
 142.000        23
 142.020        10
 142.040         9
 142.060        12
 142.080        16
 142.100        17
 142.120        17
 142.140        30
 142.160        19
 142.180        15
 142.200        16
 142.220        10
 142.240        17
 142.260        16
 142.280        10
 142.300        23
 142.320        16
 142.340        22
 142.360        13
 142.380        13
 142.400        21
 142.420        13
 142.440        13
 142.460        13
 142.480        16
 142.500        30
 142.520        21
 142.540        12
 142.560        19
 142.580        13
 142.600        10
 142.620        16
 142.640        17
 142.660        21
 142.680        16
 142.700        19
 142.720        16
 142.740        12
 142.760        26
 142.780        21
 142.800        15
 142.820        19
 142.840        22
 142.860        19
 142.880        27
 142.900        15
 142.920        24
 142.940        19
 142.960        31
 142.980        23
 143.000        26
 143.020        26
 143.040        21
 143.060        17
 143.080        23
 143.100        28
 143.120        24
 143.140        17
 143.160        15
 143.180        22
 143.200        12
 143.220        17
 143.240        10
 143.260        24
 143.280        20
 143.300        20
 143.320        19
 143.340        24
 143.360        19
 143.380        16
 143.400        20
 143.420        22
 143.440        21
 143.460        21
 143.480        25
 143.500        24
 143.520        16
 143.540        16
 143.560        16
 143.580        20
 143.600        17
 143.620        22
 143.640        16
 143.660        15
 143.680        12
 143.700        16
 143.720        20
 143.740        16
 143.760        15
 143.780        21
 143.800        22
 143.820        20
 143.840        23
 143.860        21
 143.880        17
 143.900        25
 143.920        17
 143.940        12
 143.960        19
 143.980        23
 144.000        20
 144.020        22
 144.040        16
 144.060        16
 144.080        22
 144.100        15
 144.120        16
 144.140        17
 144.160        16
 144.180        16
 144.200        16
 144.220        17
 144.240        26
 144.260        12
 144.280        21
 144.300        16
 144.320        19
 144.340        10
 144.360        12
 144.380        17
 144.400        21
 144.420        17
 144.440        12
 144.460        15
 144.480        23
 144.500        16
 144.520        23
 144.540        26
 144.560        13
 144.580        13
 144.600        19
 144.620        17
 144.640        16
 144.660        19
 144.680        20
 144.700        27
 144.720        12
 144.740         7
 144.760        19
 144.780        13
 144.800        21
 144.820        21
 144.840        22
 144.860        17
 144.880        17
 144.900        17
 144.920        19
 144.940        15
 144.960        16
 144.980        16
 145.000        10
 145.020        21
 145.040        16
 145.060        17
 145.080        17
 145.100        17
 145.120        12
 145.140        22
 145.160        25
 145.180         7
 145.200        17
 145.220        15
 145.240        28
 145.260        20
 145.280        20
 145.300        21
 145.320        15
 145.340        21
 145.360        23
 145.380        15
 145.400        19
 145.420        20
 145.440        16
 145.460        10
 145.480        12
 145.500        17
 145.520        16
 145.540        15
 145.560        15
 145.580        12
 145.600        12
 145.620        10
 145.640        17
 145.660        24
 145.680        23
 145.700        15
 145.720        20
 145.740        19
 145.760         5
 145.780        17
 145.800        21
 145.820        15
 145.840        12
 145.860        12
 145.880        22
 145.900        15
 145.920        21
 145.940        17
 145.960        20
 145.980        22
 146.000        10
 146.020        19
 146.040        16
 146.060        12
 146.080        13
 146.100        16
 146.120         7
 146.140        22
 146.160        21
 146.180         9
 146.200        19
 146.220        20
 146.240        12
 146.260        12
 146.280        10
 146.300        16
 146.320        20
 146.340        15
 146.360        21
 146.380        20
 146.400        23
 146.420        16
 146.440        16
 146.460        13
 146.480        13
 146.500        16
 146.520        15
 146.540        13
 146.560        15
 146.580        12
 146.600        15
 146.620        13
 146.640        15
 146.660        16
 146.680        22
 146.700        24
 146.720        16
 146.740        13
 146.760        15
 146.780        17
 146.800        20
 146.820        12
 146.840        21
 146.860        20
 146.880        23
 146.900        12
 146.920        15
 146.940        13
 146.960        16
 146.980        16
 147.000        16
 147.020        23
 147.040        21
 147.060        19
 147.080        21
 147.100        10
 147.120         6
 147.140        15
 147.160        16
 147.180        17
 147.200        16
 147.220        16
 147.240        12
 147.260        15
 147.280        12
 147.300        16
 147.320         7
 147.340        16
 147.360        15
 147.380        20
 147.400        17
 147.420        13
 147.440        15
 147.460        13
 147.480        16
 147.500        22
 147.520        12
 147.540        25
 147.560        16
 147.580        25
 147.600        15
 147.620        20
 147.640        15
 147.660        12
 147.680        20
 147.700        23
 147.720        21
 147.740        17
 147.760        16
 147.780        13
 147.800        12
 147.820        22
 147.840        17
 147.860        22
 147.880        16
 147.900        17
 147.920        15
 147.940        15
 147.960        17
 147.980        20
 148.000        20
 148.020        17
 148.040        19
 148.060         7
 148.080        13
 148.100        10
 148.120        25
 148.140        13
 148.160        19
 148.180        23
 148.200        26
 148.220        15
 148.240        16
 148.260        16
 148.280        16
 148.300        21
 148.320        16
 148.340        16
 148.360        17
 148.380        12
 148.400        15
 148.420        15
 148.440        10
 148.460        16
 148.480        21
 148.500        12
 148.520        19
 148.540        16
 148.560        26
 148.580        20
 148.600        13
 148.620        15
 148.640        21
 148.660        13
 148.680        24
 148.700        24
 148.720        19
 148.740        16
 148.760        21
 148.780        10
 148.800        13
 148.820        15
 148.840        16
 148.860        10
 148.880        12
 148.900        16
 148.920        15
 148.940        23
 148.960        19
 148.980        16
 149.000        21
 149.020        19
 149.040        24
 149.060        20
 149.080        19
 149.100        13
 149.120        16
 149.140         9
 149.160        19
 149.180        20
 149.200        19
 149.220        23
 149.240        17
 149.260        13
 149.280        16
 149.300        23
 149.320        22
 149.340        20
 149.360        10
 149.380        24
 149.400        17
 149.420        21
 149.440        23
 149.460        12
 149.480        16
 149.500        16
 149.520        17
 149.540        13
 149.560        12
 149.580        17
 149.600        24
 149.620        17
 149.640        22
 149.660        22
 149.680        24
 149.700        17
 149.720        17
 149.740        16
 149.760        23
 149.780        27
 149.800        19
 149.820        26
 149.840        13
 149.860        20
 149.880        16
 149.900        13
 149.920        16
 149.940        17
 149.960        15
 149.980        16
 150.000        21
